Jun 18 2020 at 10:57:13
Frequency: 1.00Hz.
CO2
Zero:  Value:0.91  Date:May 19 2009 at 7:53:33 AM
Span:  Value:1.00  Date:May 19 2009 at 8:00:06 AM
H2O
Zero:  Value:0.77  Date:May 19 2009 at 7:54:01 AM
Span:  Value:1.01  Date:28 Jun 2004	 at 08:29:05	
	Relative Time	Temperature	Pressure	Aux Input	CO2 Absorptance	CO2 mmol/m3	CO2 mg/m3	CO2 umol/mol	H2O Absorptance	H2O mmol/m3	H2O g/m3	H2O mmol/mol	H2O(°C)	Cooler Voltage
	0.08	-65.72	73.77	0.00	0.0684	12.52	551.0	292.76	0.0313	189.5	3.412	4.43	-8.37	1.58
	1.08	-65.72	73.75	0.00	0.0683	12.47	548.5	291.51	0.0315	202.0	3.635	4.72	-7.55	1.58
	2.08	-65.72	73.75	0.00	0.0684	12.47	548.8	291.70	0.0310	200.1	3.603	4.68	-7.67	1.58
	3.08	-65.72	73.77	0.00	0.0685	12.40	545.5	289.82	0.0308	218.4	3.931	5.11	-6.54	1.58
	4.08	-65.72	73.77	0.00	0.0683	12.39	545.4	289.76	0.0317	215.4	3.878	5.04	-6.72	1.58
	5.08	-65.71	73.75	0.00	0.0678	12.36	543.9	289.11	0.0347	223.9	4.030	5.24	-6.21	1.58
	6.08	-65.72	73.75	0.00	0.0676	12.26	539.4	286.71	0.0367	251.1	4.519	5.87	-4.71	1.58
	7.08	-65.72	73.75	0.00	0.0673	12.25	539.0	286.47	0.0384	250.6	4.510	5.86	-4.73	1.58
	8.08	-65.72	73.77	0.00	0.0679	12.33	542.4	288.16	0.0344	235.2	4.234	5.50	-5.57	1.58
	9.08	-66.19	73.77	0.00	0.0682	12.38	544.7	288.74	0.0328	224.3	4.037	5.23	-6.22	1.58
	10.08	-65.72	73.75	0.00	0.0682	12.40	545.7	290.02	0.0334	221.4	3.985	5.18	-6.36	1.58
	11.08	-65.72	73.72	0.00	0.0684	12.48	549.1	291.93	0.0319	202.9	3.652	4.75	-7.49	1.58
	12.08	-65.72	73.75	0.00	0.0682	12.45	547.7	291.10	0.0332	212.0	3.816	4.96	-6.92	1.58
	13.08	-65.72	73.77	0.00	0.0682	12.40	545.5	289.81	0.0330	220.9	3.977	5.17	-6.39	1.58
	14.16	-65.72	73.75	0.00	0.0684	12.36	544.0	289.13	0.0325	233.5	4.203	5.46	-5.66	1.58
	15.08	-64.82	73.75	0.00	0.0684	12.39	545.1	290.97	0.0320	227.6	4.097	5.35	-5.94	1.58
	16.08	-65.72	73.75	0.00	0.0678	12.37	544.1	289.20	0.0360	232.7	4.189	5.44	-5.71	1.58
	17.08	-65.72	73.75	0.00	0.0679	12.32	542.2	288.15	0.0353	242.9	4.372	5.68	-5.14	1.58
	18.08	-65.72	73.75	0.00	0.0678	12.34	542.9	288.53	0.0356	236.7	4.261	5.54	-5.48	1.58
	19.08	-65.72	73.72	0.00	0.0677	12.29	540.6	287.45	0.0358	248.8	4.478	5.82	-4.83	1.58
	20.08	-65.72	73.75	0.00	0.0684	12.44	547.2	290.81	0.0310	210.8	3.794	4.93	-7.00	1.58
	21.08	-66.19	73.75	0.00	0.0683	12.47	548.7	290.98	0.0314	198.7	3.577	4.64	-7.79	1.58
	22.08	-65.72	73.75	0.00	0.0684	12.50	550.1	292.39	0.0314	193.1	3.477	4.52	-8.13	1.58
	23.08	-65.72	73.75	0.00	0.0679	12.33	542.4	288.28	0.0351	235.6	4.240	5.51	-5.55	1.58
	24.08	-65.26	73.77	0.00	0.0678	12.33	542.7	288.97	0.0360	237.5	4.274	5.56	-5.41	1.58
	25.08	-65.72	73.77	0.00	0.0678	12.31	541.8	287.88	0.0366	250.2	4.504	5.85	-4.75	1.58
	26.08	-65.72	73.75	0.00	0.0689	12.55	552.3	293.56	0.0278	177.5	3.194	4.15	-9.21	1.58
	27.08	-65.72	73.77	0.00	0.0686	12.48	549.3	291.86	0.0297	197.5	3.555	4.62	-7.84	1.58
	28.08	-65.72	73.77	0.00	0.0685	12.46	548.3	291.32	0.0303	200.9	3.615	4.70	-7.62	1.58
	29.08	-65.26	73.75	0.00	0.0679	12.38	544.7	290.15	0.0351	221.7	3.991	5.20	-6.31	1.58
	30.08	-65.72	73.77	0.00	0.0680	12.36	543.7	288.86	0.0352	229.8	4.136	5.37	-5.87	1.58
	31.16	-65.72	73.77	0.00	0.0679	12.31	541.8	287.86	0.0343	238.6	4.295	5.58	-5.38	1.58
	32.08	-65.72	73.75	0.00	0.0677	12.30	541.2	287.66	0.0357	239.0	4.301	5.59	-5.36	1.58
	33.08	-65.72	73.77	0.00	0.0677	12.38	544.8	289.45	0.0359	217.0	3.905	5.07	-6.62	1.58
	34.08	-65.72	73.77	0.00	0.0683	12.45	548.0	291.15	0.0317	202.0	3.636	4.72	-7.55	1.58
	35.08	-65.72	73.75	0.00	0.0679	12.38	544.6	289.46	0.0340	219.1	3.944	5.12	-6.50	1.58
	36.08	-64.82	73.77	0.00	0.0684	12.45	547.9	292.38	0.0308	200.9	3.615	4.72	-7.57	1.58
	37.08	-65.72	73.77	0.00	0.0680	12.37	544.1	289.09	0.0342	223.7	4.026	5.23	-6.23	1.58
	38.08	-65.72	73.77	0.00	0.0684	12.48	549.3	291.84	0.0308	203.0	3.653	4.74	-7.49	1.58
	39.08	-65.72	73.75	0.00	0.0682	12.44	547.4	290.96	0.0321	213.3	3.839	4.99	-6.85	1.58
	40.08	-65.72	73.75	0.00	0.0681	12.38	544.9	289.61	0.0327	223.0	4.013	5.21	-6.27	1.58
	41.08	-65.72	73.75	0.00	0.0685	12.44	547.2	290.86	0.0334	215.8	3.885	5.05	-6.69	1.58
	42.08	-65.72	73.75	0.00	0.0684	12.42	546.6	290.53	0.0312	211.0	3.797	4.93	-6.99	1.58
	43.08	-65.72	73.75	0.00	0.0679	12.34	543.1	288.66	0.0340	229.9	4.138	5.38	-5.87	1.58
	44.08	-65.72	73.75	0.00	0.0688	12.55	552.0	293.40	0.0276	176.1	3.169	4.12	-9.31	1.58
	45.08	-65.26	73.77	0.00	0.0686	12.47	548.6	292.10	0.0294	198.5	3.573	4.65	-7.75	1.57
	46.08	-65.72	73.77	0.00	0.0684	12.49	549.5	291.96	0.0308	194.8	3.506	4.55	-8.02	1.57
	47.08	-65.72	73.75	0.00	0.0682	12.44	547.6	291.03	0.0325	206.1	3.709	4.82	-7.29	1.57
	48.08	-65.72	73.77	0.00	0.0683	12.43	546.9	290.59	0.0314	204.7	3.685	4.79	-7.38	1.58
	49.08	-65.72	73.75	0.00	0.0683	12.43	547.1	290.79	0.0315	206.9	3.724	4.84	-7.24	1.58
	50.09	-65.72	73.77	0.00	0.0681	12.38	544.7	289.39	0.0330	219.1	3.945	5.12	-6.49	1.57
	51.08	-65.72	73.77	0.00	0.0690	12.65	556.6	295.73	0.0265	152.2	2.740	3.56	-11.15	1.57
	52.09	-65.72	73.80	0.00	0.0691	12.61	554.9	294.70	0.0255	159.9	2.879	3.74	-10.53	1.57
	53.08	-65.72	73.75	0.00	0.0694	12.68	557.9	296.52	0.0229	144.6	2.604	3.38	-11.79	1.57
	54.08	-65.72	73.77	0.00	0.0694	12.70	558.9	296.93	0.0227	139.0	2.501	3.25	-12.28	1.57
	55.08	-65.71	73.75	0.00	0.0688	12.58	553.6	294.27	0.0269	166.2	2.991	3.89	-10.05	1.58
	56.08	-65.72	73.75	0.00	0.0689	12.57	553.2	294.04	0.0257	168.9	3.040	3.95	-9.84	1.57
	57.08	-65.26	73.75	0.00	0.0690	12.52	551.1	293.53	0.0259	180.9	3.256	4.24	-8.94	1.57
	58.08	-65.72	73.72	0.00	0.0688	12.59	553.7	294.42	0.0276	166.6	2.998	3.90	-10.02	1.57
	59.08	-65.26	73.75	0.00	0.0687	12.54	551.5	293.79	0.0281	177.3	3.191	4.15	-9.20	1.57
	60.08	-65.72	73.77	0.00	0.0687	12.49	549.6	292.01	0.0288	190.1	3.422	4.44	-8.33	1.57
	61.08	-65.72	73.75	0.00	0.0687	12.53	551.2	292.98	0.0281	183.6	3.305	4.29	-8.78	1.57
	62.08	-65.72	73.75	0.00	0.0688	12.56	552.7	293.75	0.0283	176.7	3.181	4.13	-9.27	1.57
	63.08	-65.72	73.75	0.00	0.0686	12.50	550.0	292.33	0.0296	191.0	3.438	4.47	-8.27	1.57
	64.08	-65.72	73.75	0.00	0.0683	12.46	548.0	291.27	0.0316	200.0	3.601	4.68	-7.68	1.57
	65.08	-65.72	73.75	0.00	0.0695	12.66	557.0	296.03	0.0229	152.2	2.740	3.56	-11.15	1.57
	66.08	-66.19	73.75	0.00	0.0690	12.55	552.4	292.92	0.0263	177.2	3.189	4.13	-9.26	1.57
	67.09	-65.72	73.75	0.00	0.0687	12.52	550.9	292.79	0.0288	187.2	3.370	4.38	-8.53	1.57
	68.08	-65.72	73.80	0.00	0.0686	12.54	551.6	292.95	0.0292	182.7	3.289	4.27	-8.84	1.57
	69.09	-65.72	73.75	0.00	0.0694	12.73	559.9	297.58	0.0235	137.3	2.471	3.21	-12.44	1.57
	70.08	-65.72	73.75	0.00	0.0689	12.58	553.3	294.08	0.0271	173.0	3.113	4.04	-9.54	1.57
	71.09	-65.72	73.75	0.00	0.0691	12.63	555.5	295.25	0.0258	158.1	2.845	3.70	-10.68	1.57
	72.08	-65.72	73.77	0.00	0.0688	12.58	553.7	294.18	0.0274	167.6	3.017	3.92	-9.94	1.57
	73.08	-65.72	73.75	0.00	0.0688	12.53	551.1	292.92	0.0271	180.4	3.248	4.22	-9.00	1.57
	74.08	-65.72	73.75	0.00	0.0692	12.63	555.8	295.40	0.0239	156.0	2.808	3.65	-10.84	1.57
	75.08	-65.72	73.77	0.00	0.0690	12.62	555.5	295.12	0.0257	158.6	2.856	3.71	-10.63	1.57
	76.08	-65.72	73.75	0.00	0.0690	12.58	553.5	294.17	0.0264	166.9	3.004	3.90	-9.99	1.57
	77.08	-65.72	73.75	0.00	0.0690	12.60	554.6	294.77	0.0266	164.9	2.968	3.86	-10.15	1.57
	78.08	-65.72	73.77	0.00	0.0687	12.54	551.9	293.22	0.0279	177.2	3.189	4.14	-9.23	1.57
	79.08	-65.71	73.75	0.00	0.0687	12.55	552.1	293.46	0.0287	177.1	3.187	4.14	-9.24	1.57
	80.08	-65.72	73.75	0.00	0.0693	12.59	554.1	294.49	0.0241	166.5	2.997	3.89	-10.02	1.57
	81.08	-65.72	73.75	0.00	0.0689	12.57	553.0	293.92	0.0267	168.5	3.033	3.94	-9.87	1.57
	82.08	-65.72	73.75	0.00	0.0688	12.56	552.7	293.74	0.0279	173.6	3.126	4.06	-9.49	1.57
	83.08	-65.72	73.75	0.00	0.0684	12.46	548.4	291.45	0.0305	197.2	3.549	4.61	-7.86	1.57
	84.09	-65.72	73.75	0.00	0.0683	12.44	547.3	290.88	0.0314	204.6	3.683	4.79	-7.38	1.57
	85.08	-65.72	73.75	0.00	0.0689	12.60	554.4	294.68	0.0266	163.3	2.939	3.82	-10.27	1.57
	86.09	-66.19	73.75	0.00	0.0680	12.41	546.0	289.53	0.0327	206.2	3.712	4.81	-7.31	1.57
	87.08	-65.72	73.80	0.00	0.0689	12.55	552.2	293.30	0.0266	174.2	3.136	4.07	-9.45	1.57
	88.16	-65.72	73.77	0.00	0.0690	12.62	555.1	294.95	0.0259	159.5	2.872	3.73	-10.56	1.57
	89.08	-65.72	73.75	0.00	0.0685	12.57	552.9	293.85	0.0288	169.9	3.058	3.97	-9.77	1.57
	90.09	-65.72	73.75	0.00	0.0688	12.56	552.8	293.83	0.0269	166.4	2.996	3.89	-10.03	1.57
	91.08	-65.72	73.77	0.00	0.0681	12.43	547.1	290.70	0.0313	195.4	3.517	4.57	-7.98	1.57
	92.08	-65.72	73.75	0.00	0.0687	12.39	545.1	289.71	0.0268	207.1	3.728	4.84	-7.23	1.57
	93.08	-65.72	73.75	0.00	0.0691	12.66	556.9	295.99	0.0243	147.4	2.654	3.45	-11.55	1.57
	94.08	-65.72	73.75	0.00	0.0690	12.62	555.4	295.18	0.0256	155.1	2.792	3.63	-10.92	1.57
