Jun 18 2020 at 11:45:22
Frequency: 1.00Hz.
CO2
Zero:  Value:0.91  Date:May 19 2009 at 7:53:33 AM
Span:  Value:1.00  Date:May 19 2009 at 8:00:06 AM
H2O
Zero:  Value:0.77  Date:May 19 2009 at 7:54:01 AM
Span:  Value:1.01  Date:28 Jun 2004	 at 08:29:05	
	Relative Time	Temperature	Pressure	Aux Input	CO2 Absorptance	CO2 mmol/m3	CO2 mg/m3	CO2 umol/mol	H2O Absorptance	H2O mmol/m3	H2O g/m3	H2O mmol/mol	H2O(°C)	Cooler Voltage
	0.12	-65.72	73.77	0.00	0.0673	12.17	535.4	284.45	0.0399	285.7	5.143	6.68	-2.98	1.56
	1.14	-65.72	73.77	0.00	0.0672	12.18	536.0	284.79	0.0402	283.0	5.093	6.62	-3.11	1.56
	2.12	-65.26	73.77	0.00	0.0671	12.18	535.9	285.38	0.0426	286.6	5.159	6.71	-2.91	1.56
	3.14	-65.72	73.77	0.00	0.0673	12.16	535.2	284.35	0.0400	289.7	5.214	6.77	-2.80	1.56
	4.12	-65.72	73.75	0.00	0.0674	12.21	537.4	285.60	0.0399	276.9	4.984	6.47	-3.41	1.56
	5.14	-65.72	73.72	0.00	0.0671	12.16	534.9	284.39	0.0426	293.1	5.276	6.86	-2.64	1.56
	6.12	-65.72	73.75	0.00	0.0672	12.14	534.0	283.79	0.0409	301.9	5.434	7.06	-2.24	1.56
	7.14	-65.26	73.77	0.00	0.0672	12.18	536.0	285.42	0.0405	283.3	5.100	6.64	-3.07	1.56
	8.12	-65.72	73.75	0.00	0.0669	12.16	535.2	284.48	0.0437	290.2	5.223	6.79	-2.78	1.56
	9.14	-65.72	73.75	0.00	0.0669	12.15	534.5	284.07	0.0432	299.0	5.382	6.99	-2.37	1.57
	10.14	-65.72	73.77	0.00	0.0669	12.13	533.6	283.49	0.0435	303.4	5.462	7.09	-2.17	1.57
	11.14	-65.72	73.77	0.00	0.0670	12.12	533.3	283.36	0.0433	303.7	5.467	7.10	-2.16	1.56
	12.14	-66.19	73.75	0.00	0.0670	12.14	534.3	283.33	0.0427	299.4	5.390	6.99	-2.38	1.56
	13.14	-65.72	73.75	0.00	0.0670	12.14	534.0	283.81	0.0428	302.6	5.447	7.08	-2.21	1.57
	14.14	-65.72	73.77	0.00	0.0668	12.04	529.7	281.46	0.0447	330.3	5.946	7.72	-1.02	1.57
	15.14	-65.72	73.77	0.00	0.0668	12.08	531.4	282.36	0.0445	320.9	5.776	7.50	-1.41	1.57
	16.14	-65.72	73.77	0.00	0.0665	12.01	528.6	280.84	0.0468	340.4	6.128	7.96	-0.61	1.56
	17.14	-65.72	73.77	0.00	0.0667	12.04	529.9	281.55	0.0459	334.6	6.022	7.82	-0.85	1.57
	18.14	-65.72	73.77	0.00	0.0668	12.03	529.5	281.32	0.0457	340.7	6.133	7.97	-0.60	1.57
	19.14	-65.72	73.77	0.00	0.0668	12.05	530.2	281.73	0.0451	332.8	5.990	7.78	-0.92	1.57
	20.14	-65.72	73.77	0.00	0.0668	12.09	531.8	282.52	0.0462	323.5	5.822	7.56	-1.31	1.57
	21.12	-65.72	73.77	0.00	0.0665	12.00	528.1	280.58	0.0474	347.7	6.259	8.13	-0.32	1.57
	22.14	-66.19	73.77	0.00	0.0665	12.01	528.5	280.16	0.0473	349.3	6.287	8.15	-0.29	1.57
	23.12	-65.72	73.77	0.00	0.0665	12.01	528.5	280.80	0.0477	347.0	6.247	8.11	-0.34	1.57
	24.14	-65.72	73.75	0.00	0.0666	12.05	530.3	281.83	0.0467	333.7	6.007	7.80	-0.88	1.57
	25.12	-65.72	73.77	0.00	0.0667	12.05	530.1	281.64	0.0462	335.1	6.032	7.83	-0.82	1.57
	26.14	-65.72	73.77	0.00	0.0666	12.03	529.2	281.19	0.0470	341.8	6.152	7.99	-0.55	1.57
	27.14	-65.72	73.75	0.00	0.0665	12.00	527.9	280.56	0.0477	354.9	6.388	8.30	-0.04	1.57
	28.14	-65.72	73.75	0.00	0.0665	12.00	528.0	280.62	0.0480	351.4	6.325	8.22	-0.17	1.57
	29.14	-65.72	73.77	0.00	0.0664	11.97	526.5	279.76	0.0484	365.1	6.571	8.53	0.35	1.57
	30.14	-65.72	73.80	0.00	0.0665	11.99	527.4	280.11	0.0485	358.8	6.459	8.39	0.12	1.57
	31.14	-65.72	73.75	0.00	0.0664	11.99	527.4	280.29	0.0484	357.8	6.440	8.37	0.07	1.57
	32.14	-65.72	73.77	0.00	0.0663	11.94	525.2	279.02	0.0496	374.9	6.748	8.76	0.72	1.57
	33.14	-65.72	73.77	0.00	0.0663	11.96	526.1	279.54	0.0495	370.4	6.667	8.66	0.55	1.57
	34.14	-65.72	73.77	0.00	0.0660	11.89	523.4	278.07	0.0524	392.8	7.071	9.18	1.37	1.57
	35.14	-65.72	73.77	0.00	0.0662	11.92	524.7	278.76	0.0512	390.6	7.031	9.13	1.29	1.57
	36.14	-65.72	73.75	0.00	0.0662	11.94	525.3	279.20	0.0503	379.5	6.831	8.87	0.89	1.57
	37.14	-66.19	73.77	0.00	0.0661	11.92	524.5	278.01	0.0512	384.0	6.912	8.96	1.02	1.57
	38.14	-65.72	73.77	0.00	0.0661	11.95	525.7	279.31	0.0519	377.4	6.794	8.82	0.81	1.57
	39.14	-65.72	73.75	0.00	0.0661	11.94	525.2	279.14	0.0518	379.8	6.836	8.88	0.90	1.57
	40.12	-65.72	73.75	0.00	0.0660	11.88	522.5	277.72	0.0528	407.0	7.326	9.52	1.86	1.57
	41.14	-65.72	73.75	0.00	0.0660	11.90	523.7	278.36	0.0526	396.9	7.145	9.28	1.51	1.57
	42.12	-65.26	73.77	0.00	0.0662	11.93	525.0	279.57	0.0516	383.9	6.910	8.99	1.08	1.57
	43.14	-65.72	73.75	0.00	0.0662	11.94	525.4	279.27	0.0514	385.3	6.936	9.01	1.10	1.57
	44.12	-65.72	73.75	0.00	0.0662	11.92	524.5	278.78	0.0520	393.0	7.074	9.19	1.38	1.57
	45.14	-65.26	73.77	0.00	0.0660	11.91	524.2	279.10	0.0527	399.2	7.185	9.35	1.62	1.57
	46.22	-65.72	73.77	0.00	0.0661	11.89	523.4	278.07	0.0529	401.3	7.224	9.38	1.67	1.57
	47.14	-65.72	73.75	0.00	0.0660	11.91	524.2	278.63	0.0530	396.5	7.136	9.27	1.50	1.57
	48.20	-66.20	73.77	0.00	0.0660	11.87	522.4	276.91	0.0538	414.3	7.457	9.66	2.08	1.57
	49.14	-65.72	73.75	0.00	0.0661	11.85	521.3	277.07	0.0535	425.2	7.654	9.94	2.48	1.57
	50.14	-65.72	73.75	0.00	0.0660	11.92	524.4	278.72	0.0534	401.8	7.232	9.40	1.68	1.57
	51.14	-65.72	73.75	0.00	0.0658	11.83	520.7	276.77	0.0554	432.5	7.785	10.11	2.72	1.57
	52.14	-65.72	73.77	250.00	0.0662	11.92	524.6	278.74	0.0536	407.4	7.333	9.52	1.88	1.57
	53.14	-66.19	73.77	0.00	0.0661	11.91	524.0	277.75	0.0539	414.2	7.456	9.66	2.08	1.57
	54.14	-65.72	73.77	0.00	0.0661	11.90	523.7	278.23	0.0548	421.3	7.584	9.85	2.35	1.57
	55.14	-65.72	73.77	0.00	0.0659	11.89	523.2	277.98	0.0558	425.2	7.653	9.94	2.48	1.57
	56.14	-65.26	73.75	0.00	0.0658	11.85	521.2	277.64	0.0567	443.8	7.989	10.40	3.11	1.57
	57.14	-65.72	73.77	0.00	0.0661	11.90	523.4	278.09	0.0552	428.6	7.714	10.02	2.59	1.57
	58.14	-65.72	73.77	0.00	0.0661	11.91	524.0	278.39	0.0549	420.7	7.573	9.84	2.33	1.57
	59.14	-65.71	73.77	0.00	0.0660	11.90	523.5	278.17	0.0555	427.2	7.690	9.99	2.55	1.57
	60.14	-65.72	73.77	0.00	0.0659	11.88	522.7	277.73	0.0562	441.2	7.941	10.31	3.00	1.57
	61.12	-65.72	73.77	0.00	0.0661	11.91	524.0	278.38	0.0571	431.5	7.767	10.09	2.68	1.58
	62.14	-65.72	73.77	0.00	0.0660	11.89	523.2	277.96	0.0569	447.4	8.054	10.46	3.20	1.58
	63.22	-65.72	73.77	0.00	0.0660	11.88	522.8	277.75	0.0575	446.8	8.042	10.44	3.18	1.58
	64.14	-65.72	73.80	0.00	0.0661	11.90	523.8	278.18	0.0569	446.6	8.038	10.44	3.17	1.58
	65.22	-65.72	73.77	0.00	0.0660	11.90	523.8	278.28	0.0566	438.5	7.894	10.25	2.91	1.58
	66.14	-65.26	73.75	0.00	0.0660	11.88	522.8	278.49	0.0572	458.3	8.250	10.74	3.57	1.58
	67.14	-65.26	73.80	0.00	0.0661	11.92	524.3	279.07	0.0580	444.4	7.998	10.41	3.13	1.58
	68.14	-65.72	73.75	0.00	0.0660	11.90	523.5	278.26	0.0585	454.0	8.172	10.62	3.40	1.58
	69.14	-65.72	73.77	0.00	0.0661	11.91	524.2	278.51	0.0574	446.9	8.043	10.45	3.18	1.58
	70.14	-65.72	73.77	0.00	0.0660	11.90	523.8	278.28	0.0578	454.0	8.171	10.61	3.40	1.58
	71.14	-65.72	73.77	0.00	0.0661	11.90	523.6	278.19	0.0580	456.6	8.218	10.67	3.48	1.58
	72.14	-65.72	73.75	0.00	0.0660	11.91	523.9	278.46	0.0587	468.8	8.438	10.96	3.86	1.58
	73.14	-65.72	73.77	0.00	0.0661	11.92	524.6	278.75	0.0581	453.6	8.166	10.61	3.39	1.58
	74.14	-65.72	73.77	0.00	0.0661	11.92	524.5	278.65	0.0585	459.3	8.268	10.74	3.57	1.58
	75.14	-65.72	73.77	0.00	0.0661	11.92	524.5	278.67	0.0591	461.4	8.305	10.79	3.63	1.58
