Jun 18 2020 at 10:52:21
Frequency: 1.00Hz.
CO2
Zero:  Value:0.91  Date:May 19 2009 at 7:53:33 AM
Span:  Value:1.00  Date:May 19 2009 at 8:00:06 AM
H2O
Zero:  Value:0.77  Date:May 19 2009 at 7:54:01 AM
Span:  Value:1.01  Date:28 Jun 2004	 at 08:29:05	
	Relative Time	Temperature	Pressure	Aux Input	CO2 Absorptance	CO2 mmol/m3	CO2 mg/m3	CO2 umol/mol	H2O Absorptance	H2O mmol/m3	H2O g/m3	H2O mmol/mol	H2O(°C)	Cooler Voltage
	0.14	-65.72	73.77	0.00	0.0677	12.29	540.8	287.34	0.0450	329.8	5.936	7.71	-1.04	1.57
	1.16	-65.72	73.72	0.00	0.0677	12.29	540.6	287.42	0.0447	328.2	5.907	7.68	-1.11	1.57
	2.14	-66.19	73.75	0.00	0.0677	12.28	540.5	286.63	0.0459	328.4	5.912	7.66	-1.13	1.57
	3.14	-65.72	73.75	0.00	0.0677	12.29	540.8	287.41	0.0457	329.8	5.936	7.71	-1.04	1.57
	4.14	-65.72	73.75	0.00	0.0678	12.30	541.2	287.63	0.0475	339.6	6.114	7.94	-0.64	1.57
	5.14	-65.72	73.72	0.00	0.0678	12.31	541.7	287.99	0.0475	346.9	6.244	8.12	-0.35	1.57
	6.14	-65.72	73.77	0.00	0.0678	12.32	542.2	288.09	0.0483	360.3	6.486	8.42	0.17	1.57
	7.14	-65.72	73.75	0.00	0.0679	12.30	541.4	287.74	0.0482	351.0	6.318	8.21	-0.19	1.57
	8.14	-65.26	73.72	0.00	0.0678	12.32	542.2	288.91	0.0488	373.0	6.714	8.74	0.68	1.57
	9.14	-65.72	73.77	0.00	0.0678	12.31	541.6	287.75	0.0485	352.2	6.340	8.23	-0.14	1.57
	10.14	-65.72	73.75	0.00	0.0678	12.31	541.7	287.90	0.0492	356.1	6.410	8.33	0.01	1.57
	11.14	-65.72	73.77	0.00	0.0681	12.42	546.3	290.24	0.0497	367.5	6.615	8.59	0.45	1.57
	12.22	-65.26	73.75	0.00	0.0679	12.32	542.3	288.86	0.0496	366.9	6.604	8.60	0.45	1.57
	13.14	-65.72	73.77	0.00	0.0680	12.37	544.2	289.15	0.0502	376.5	6.776	8.80	0.78	1.57
	14.16	-65.72	73.75	0.00	0.0679	12.35	543.5	288.85	0.0497	368.5	6.632	8.62	0.48	1.57
	15.14	-65.26	73.75	0.00	0.0680	12.37	544.2	289.88	0.0501	378.0	6.803	8.86	0.86	1.57
	16.16	-65.72	73.75	0.00	0.0680	12.36	543.7	288.96	0.0501	370.5	6.669	8.66	0.56	1.57
	17.14	-65.72	73.72	0.00	0.0680	12.36	543.6	289.05	0.0513	380.3	6.845	8.90	0.92	1.57
	18.16	-65.72	73.75	0.00	0.0680	12.38	544.6	289.43	0.0506	381.2	6.862	8.92	0.95	1.57
	19.14	-65.72	73.75	0.00	0.0681	12.38	544.8	289.58	0.0514	387.0	6.965	9.05	1.16	1.57
	20.14	-66.19	73.75	0.00	0.0680	12.40	545.5	289.26	0.0508	382.0	6.875	8.91	0.95	1.57
	21.14	-65.72	73.77	0.00	0.0683	12.41	546.2	290.21	0.0515	382.8	6.890	8.95	1.01	1.57
	22.14	-65.72	73.75	0.00	0.0683	12.43	546.9	290.66	0.0534	398.3	7.170	9.32	1.56	1.57
	23.14	-65.72	73.75	0.00	0.0682	12.41	545.9	290.16	0.0522	397.1	7.148	9.29	1.52	1.57
	24.14	-65.72	73.77	0.00	0.0682	12.41	546.0	290.09	0.0523	400.1	7.202	9.35	1.63	1.57
	25.14	-65.72	73.75	0.00	0.0683	12.42	546.3	290.35	0.0526	395.0	7.111	9.24	1.45	1.57
	26.14	-65.72	73.77	0.00	0.0685	12.47	548.8	291.57	0.0531	399.3	7.187	9.33	1.60	1.57
	27.14	-65.72	73.75	0.00	0.0684	12.45	547.7	291.11	0.0533	409.8	7.376	9.58	1.96	1.57
	28.14	-65.72	73.75	0.00	0.0683	12.43	546.8	290.63	0.0530	399.7	7.194	9.35	1.61	1.57
	29.14	-65.72	73.74	0.00	0.0684	12.45	547.8	291.15	0.0542	408.8	7.359	9.56	1.93	1.57
	30.14	-65.72	73.75	0.00	0.0684	12.44	547.6	291.03	0.0539	407.1	7.328	9.52	1.87	1.57
	31.22	-65.72	73.75	0.00	0.0684	12.45	547.8	291.18	0.0537	408.5	7.354	9.55	1.92	1.57
	32.14	-65.26	73.74	0.00	0.0685	12.48	549.0	292.44	0.0547	413.5	7.443	9.69	2.12	1.57
	33.16	-65.72	73.75	0.00	0.0687	12.52	550.9	292.81	0.0552	417.1	7.508	9.75	2.21	1.57
	34.14	-65.72	73.75	0.00	0.0688	12.54	551.8	293.26	0.0550	423.1	7.616	9.89	2.41	1.57
	35.16	-64.82	73.72	0.00	0.0687	12.52	550.8	294.12	0.0552	421.2	7.582	9.90	2.41	1.57
	36.14	-65.72	73.75	0.00	0.0686	12.51	550.3	292.48	0.0553	423.0	7.614	9.89	2.41	1.57
	37.16	-65.72	73.77	0.00	0.0687	12.53	551.3	292.90	0.0558	432.0	7.776	10.10	2.70	1.57
	38.14	-65.72	73.75	0.00	0.0686	12.53	551.3	293.00	0.0555	430.1	7.741	10.06	2.64	1.57
	39.16	-65.72	73.75	0.00	0.0688	12.54	551.9	293.35	0.0569	442.0	7.956	10.34	3.02	1.57
	40.14	-65.72	73.77	0.00	0.0688	12.52	550.8	292.64	0.0563	434.6	7.823	10.16	2.79	1.57
	41.14	-65.72	73.75	0.00	0.0687	12.51	550.5	292.58	0.0563	434.0	7.812	10.15	2.77	1.57
	42.14	-65.72	73.75	0.00	0.0688	12.54	551.6	293.20	0.0576	443.7	7.987	10.38	3.08	1.57
	43.14	-65.72	73.75	0.00	0.0689	12.54	551.8	293.28	0.0574	445.6	8.021	10.42	3.14	1.57
	44.14	-65.72	73.75	0.00	0.0688	12.53	551.2	292.97	0.0577	441.6	7.949	10.33	3.01	1.57
	45.14	-65.72	73.75	0.00	0.0688	12.55	552.1	293.45	0.0576	448.3	8.069	10.48	3.22	1.57
	46.14	-65.72	73.75	0.00	0.0690	12.58	553.3	294.08	0.0587	461.4	8.306	10.79	3.63	1.57
	47.14	-65.72	73.75	0.00	0.0689	12.58	553.5	294.17	0.0576	457.4	8.233	10.70	3.51	1.57
	48.14	-65.72	73.75	0.00	0.0689	12.57	552.9	293.85	0.0576	448.6	8.075	10.49	3.23	1.57
	49.14	-65.26	73.72	0.00	0.0689	12.60	554.2	295.32	0.0585	462.1	8.318	10.83	3.68	1.57
	50.22	-65.72	73.75	0.00	0.0690	12.58	553.7	294.29	0.0582	455.9	8.205	10.66	3.46	1.57
	51.14	-65.72	73.75	0.00	0.0690	12.59	554.1	294.47	0.0593	466.8	8.403	10.92	3.80	1.58
	52.16	-65.72	73.75	0.00	0.0690	12.61	554.9	294.93	0.0588	462.9	8.332	10.83	3.68	1.57
	53.14	-66.68	73.77	0.00	0.0691	12.66	556.9	294.52	0.0590	465.7	8.382	10.84	3.70	1.57
	54.16	-65.72	73.75	0.00	0.0692	12.61	555.0	294.97	0.0599	472.7	8.509	11.06	3.98	1.57
	55.14	-65.72	73.75	0.00	0.0691	12.61	554.9	294.94	0.0592	466.3	8.394	10.91	3.78	1.57
	56.16	-65.72	73.75	0.00	0.0690	12.61	554.9	294.93	0.0593	472.3	8.502	11.05	3.96	1.57
	57.14	-65.72	73.75	0.00	0.0692	12.62	555.4	295.21	0.0601	469.3	8.447	10.97	3.87	1.58
	58.16	-65.72	73.72	250.00	0.0692	12.63	555.9	295.57	0.0597	469.9	8.458	10.99	3.89	1.57
	59.14	-66.19	73.77	0.00	0.0691	12.62	555.4	294.44	0.0598	475.4	8.557	11.09	4.02	1.57
	60.14	-65.72	73.77	0.00	0.0692	12.65	556.5	295.67	0.0602	477.2	8.589	11.16	4.11	1.57
	61.14	-65.71	73.72	0.00	0.0692	12.65	556.4	295.83	0.0610	478.7	8.616	11.20	4.15	1.57
	62.16	-65.72	73.75	0.00	0.0693	12.68	558.0	296.56	0.0612	492.9	8.873	11.53	4.57	1.57
	63.14	-65.72	73.77	0.00	0.0692	12.66	557.0	295.92	0.0608	488.4	8.792	11.42	4.44	1.58
	64.14	-65.72	73.72	0.00	0.0694	12.67	557.3	296.31	0.0612	487.3	8.771	11.40	4.41	1.57
	65.14	-65.72	73.75	0.00	0.0692	12.68	557.9	296.52	0.0609	488.2	8.787	11.42	4.43	1.57
	66.14	-65.72	73.75	0.00	0.0693	12.68	557.9	296.51	0.0618	498.5	8.973	11.66	4.73	1.57
	67.22	-65.72	73.75	0.00	0.0694	12.69	558.5	296.86	0.0622	497.6	8.957	11.64	4.71	1.57
	68.14	-65.72	73.77	0.00	0.0694	12.69	558.6	296.76	0.0622	499.9	8.998	11.69	4.77	1.58
	69.22	-65.72	73.75	0.00	0.0693	12.67	557.3	296.19	0.0616	490.8	8.834	11.48	4.51	1.58
	70.14	-65.72	73.75	0.00	0.0694	12.68	558.0	296.58	0.0625	498.9	8.980	11.67	4.74	1.57
	71.16	-65.72	73.75	0.00	0.0694	12.67	557.6	296.36	0.0627	495.4	8.918	11.59	4.64	1.58
	72.14	-65.72	73.75	0.00	0.0694	12.69	558.5	296.82	0.0624	504.6	9.083	11.80	4.91	1.58
	73.16	-65.72	73.77	0.00	0.0695	12.71	559.3	297.17	0.0634	511.2	9.202	11.95	5.09	1.58
	74.14	-65.72	73.77	0.00	0.0694	12.71	559.1	297.05	0.0632	510.4	9.187	11.93	5.07	1.58
	75.16	-65.72	73.75	0.00	0.0695	12.72	559.5	297.37	0.0634	514.1	9.253	12.02	5.17	1.58
	76.14	-65.72	73.77	0.00	0.0695	12.71	559.3	297.17	0.0632	514.3	9.257	12.02	5.18	1.58
	77.16	-65.72	73.75	0.00	0.0695	12.73	560.2	297.73	0.0635	513.4	9.240	12.01	5.15	1.58
	78.14	-65.72	73.75	0.00	0.0696	12.72	559.5	297.37	0.0644	515.2	9.274	12.05	5.21	1.58
	79.16	-65.72	73.77	0.00	0.0696	12.72	559.9	297.46	0.0643	518.5	9.333	12.12	5.30	1.58
	80.14	-65.72	73.75	0.00	0.0697	12.75	560.8	298.08	0.0644	526.7	9.481	12.32	5.52	1.58
	81.16	-65.72	73.75	0.00	0.0696	12.75	560.8	298.08	0.0649	531.0	9.558	12.42	5.64	1.58
	82.14	-65.72	73.75	0.00	0.0697	12.74	560.6	297.98	0.0646	522.1	9.398	12.21	5.40	1.58
	83.14	-65.26	73.75	0.00	0.0697	12.77	561.7	299.19	0.0650	530.0	9.541	12.42	5.65	1.58
	84.14	-65.72	73.75	0.00	0.0697	12.76	561.5	298.42	0.0648	533.1	9.596	12.47	5.70	1.58
	85.14	-65.72	73.75	0.00	0.0698	12.76	561.7	298.52	0.0654	529.6	9.533	12.38	5.60	1.58
	86.22	-64.82	73.75	0.00	0.0698	12.77	561.9	299.95	0.0660	536.4	9.655	12.60	5.85	1.58
	87.14	-65.71	73.77	0.00	0.0698	12.77	562.0	298.59	0.0656	535.3	9.636	12.52	5.76	1.58
	88.16	-65.72	73.77	0.00	0.0697	12.76	561.5	298.35	0.0650	531.6	9.569	12.43	5.66	1.58
	89.14	-65.26	73.75	0.00	0.0698	12.77	561.9	299.30	0.0653	533.6	9.604	12.51	5.74	1.58
	90.16	-65.72	73.77	0.00	0.0699	12.82	564.0	299.67	0.0659	550.0	9.899	12.86	6.15	1.58
	91.14	-65.72	73.75	0.00	0.0699	12.80	563.0	299.25	0.0665	542.4	9.763	12.68	5.95	1.58
	92.16	-65.72	73.75	0.00	0.0701	12.83	564.6	300.11	0.0671	552.2	9.939	12.91	6.21	1.58
	93.14	-65.26	73.75	0.00	0.0699	12.81	563.8	300.34	0.0662	545.3	9.815	12.78	6.06	1.58
	94.16	-65.72	73.75	0.00	0.0698	12.80	563.2	299.36	0.0657	541.4	9.745	12.66	5.92	1.58
	95.14	-65.72	73.72	0.00	0.0699	12.81	563.6	299.68	0.0659	544.9	9.809	12.75	6.02	1.58
	96.16	-65.72	73.75	0.00	0.0699	12.82	564.2	299.85	0.0659	547.8	9.861	12.81	6.09	1.58
