Jun 17 2020 at 20:37:55
Frequency: 1.00Hz.
CO2
Zero:  Value:0.91  Date:May 19 2009 at 7:53:33 AM
Span:  Value:1.00  Date:May 19 2009 at 8:00:06 AM
H2O
Zero:  Value:0.77  Date:May 19 2009 at 7:54:01 AM
Span:  Value:1.01  Date:28 Jun 2004	 at 08:29:05	
	Relative Time	Temperature	Pressure	Aux Input	CO2 Absorptance	CO2 mmol/m3	CO2 mg/m3	CO2 umol/mol	H2O Absorptance	H2O mmol/m3	H2O g/m3	H2O mmol/mol	H2O(°C)	Cooler Voltage
	0.89	-65.26	75.70	0.00	0.0764	14.26	627.5	325.62	0.0190	113.5	2.043	2.59	-14.74	1.43
	1.89	-65.72	75.70	0.00	0.0763	14.25	626.8	324.56	0.0189	112.6	2.027	2.57	-14.86	1.43
	2.89	-65.72	75.67	0.00	0.0763	14.26	627.4	325.00	0.0189	112.7	2.029	2.57	-14.85	1.43
	3.89	-65.72	75.70	0.00	0.0763	14.26	627.3	324.80	0.0189	113.0	2.034	2.57	-14.82	1.43
	4.89	-65.72	75.67	0.00	0.0767	14.29	628.8	325.68	0.0192	113.6	2.044	2.59	-14.76	1.43
	5.89	-65.72	75.70	0.00	0.0763	14.27	627.8	325.08	0.0189	112.8	2.031	2.57	-14.84	1.43
	6.89	-65.72	75.67	0.00	0.0767	14.34	630.8	326.73	0.0190	113.8	2.049	2.59	-14.73	1.43
	7.97	-65.72	75.70	0.00	0.0764	14.27	627.8	325.07	0.0189	112.8	2.031	2.57	-14.84	1.43
	8.89	-65.72	75.70	0.00	0.0765	14.28	628.2	325.26	0.0190	113.3	2.039	2.58	-14.79	1.43
	9.91	-65.72	75.70	0.00	0.0764	14.28	628.2	325.25	0.0191	113.7	2.046	2.59	-14.75	1.43
	10.89	-65.72	75.67	0.00	0.0764	14.27	628.0	325.29	0.0190	113.2	2.038	2.58	-14.80	1.43
	11.91	-64.82	75.67	0.00	0.0764	14.27	628.1	326.73	0.0190	113.0	2.034	2.59	-14.77	1.43
	12.89	-65.72	75.70	0.00	0.0763	14.27	628.0	325.15	0.0190	113.1	2.035	2.58	-14.81	1.43
	13.91	-65.72	75.70	0.00	0.0764	14.28	628.3	325.33	0.0189	113.2	2.038	2.58	-14.80	1.43
	14.89	-65.72	75.67	0.00	0.0764	14.29	628.6	325.60	0.0189	113.4	2.042	2.59	-14.78	1.43
	15.91	-65.72	75.65	0.00	0.0765	14.28	628.4	325.59	0.0190	113.4	2.040	2.58	-14.78	1.43
	16.89	-65.26	75.67	0.00	0.0764	14.27	628.1	326.05	0.0190	113.4	2.042	2.59	-14.75	1.43
	17.89	-64.82	75.67	0.00	0.0764	14.27	627.9	326.65	0.0190	113.3	2.040	2.59	-14.74	1.43
	18.89	-66.19	75.70	0.00	0.0764	14.27	627.8	324.34	0.0190	113.2	2.038	2.57	-14.83	1.43
	19.89	-65.72	75.70	0.00	0.0763	14.28	628.1	325.24	0.0190	113.8	2.049	2.59	-14.73	1.43
	20.89	-65.72	75.67	0.00	0.0765	14.28	628.4	325.50	0.0190	113.5	2.044	2.59	-14.76	1.43
	21.89	-65.72	75.67	0.00	0.0764	14.29	628.6	325.59	0.0191	113.8	2.048	2.59	-14.74	1.43
	22.89	-65.72	75.70	0.00	0.0763	14.27	628.0	325.19	0.0190	113.8	2.049	2.59	-14.73	1.43
	23.89	-65.72	75.67	0.00	0.0764	14.27	628.1	325.31	0.0190	113.6	2.045	2.59	-14.75	1.43
	24.97	-65.72	75.70	0.00	0.0764	14.28	628.2	325.25	0.0190	113.7	2.047	2.59	-14.74	1.43
	25.89	-65.72	75.67	0.00	0.0764	14.27	628.0	325.29	0.0190	113.6	2.045	2.59	-14.76	1.43
	26.91	-65.71	75.67	0.00	0.0763	14.27	628.0	325.28	0.0191	113.6	2.046	2.59	-14.75	1.43
	27.89	-65.72	75.67	0.00	0.0763	14.28	628.3	325.45	0.0191	113.8	2.049	2.59	-14.73	1.43
	28.91	-65.72	75.67	0.00	0.0763	14.28	628.1	325.35	0.0191	114.3	2.057	2.60	-14.68	1.43
	29.89	-65.72	75.70	0.00	0.0764	14.29	628.6	325.46	0.0191	114.3	2.057	2.60	-14.68	1.43
	30.91	-65.72	75.67	0.00	0.0765	14.27	627.9	325.25	0.0192	114.6	2.063	2.61	-14.65	1.43
	31.89	-65.72	75.67	0.00	0.0765	14.28	628.3	325.45	0.0190	113.9	2.050	2.60	-14.73	1.43
	32.91	-65.72	75.67	0.00	0.0764	14.27	627.9	325.23	0.0191	114.1	2.054	2.60	-14.70	1.43
	33.89	-65.72	75.70	0.00	0.0764	14.28	628.1	325.24	0.0191	114.0	2.053	2.60	-14.71	1.43
	34.91	-65.72	75.67	0.00	0.0764	14.27	628.0	325.28	0.0191	114.2	2.055	2.60	-14.70	1.43
	35.89	-65.72	75.70	0.00	0.0764	14.28	628.2	325.29	0.0192	114.2	2.056	2.60	-14.69	1.43
	36.89	-65.72	75.70	0.00	0.0763	14.26	627.2	324.78	0.0190	114.1	2.054	2.60	-14.70	1.43
	37.89	-65.72	75.67	0.00	0.0764	14.27	628.0	325.26	0.0191	114.4	2.059	2.61	-14.67	1.43
	38.89	-65.72	75.67	0.00	0.0764	14.27	627.9	325.23	0.0191	114.3	2.057	2.60	-14.68	1.43
	39.89	-65.72	75.67	0.00	0.0764	14.27	627.8	325.18	0.0192	114.3	2.058	2.61	-14.68	1.42
	40.89	-65.72	75.67	0.00	0.0763	14.27	627.9	325.21	0.0192	114.8	2.067	2.62	-14.63	1.43
	41.89	-65.72	75.65	0.00	0.0763	14.27	628.0	325.40	0.0191	114.2	2.055	2.60	-14.69	1.43
	42.89	-65.26	75.67	0.00	0.0764	14.28	628.5	326.28	0.0192	114.4	2.060	2.61	-14.64	1.43
	43.91	-65.72	75.67	0.00	0.0764	14.28	628.2	325.40	0.0191	114.3	2.058	2.61	-14.68	1.43
	44.89	-65.72	75.70	0.00	0.0764	14.28	628.2	325.27	0.0191	114.5	2.061	2.61	-14.66	1.43
	45.91	-65.72	75.70	0.00	0.0764	14.27	628.1	325.21	0.0191	114.6	2.063	2.61	-14.65	1.42
	46.89	-65.72	75.70	0.00	0.0764	14.28	628.2	325.29	0.0191	114.6	2.063	2.61	-14.65	1.42
	47.91	-65.72	75.70	0.00	0.0763	14.27	628.0	325.17	0.0191	114.6	2.063	2.61	-14.65	1.42
	48.89	-65.72	75.70	0.00	0.0764	14.28	628.3	325.32	0.0191	114.7	2.064	2.61	-14.65	1.43
	49.91	-65.72	75.70	0.00	0.0764	14.27	628.1	325.21	0.0192	114.8	2.066	2.62	-14.63	1.43
	50.89	-65.72	75.67	0.00	0.0764	14.28	628.3	325.43	0.0192	114.8	2.067	2.62	-14.63	1.43
	51.91	-65.72	75.67	0.00	0.0765	14.28	628.4	325.47	0.0192	114.8	2.066	2.62	-14.63	1.42
	52.89	-65.72	75.70	0.00	0.0763	14.29	628.6	325.47	0.0192	114.7	2.065	2.61	-14.64	1.42
	53.91	-65.72	75.67	0.00	0.0765	14.27	628.1	325.32	0.0193	115.1	2.071	2.62	-14.60	1.43
	54.89	-65.72	75.70	0.00	0.0765	14.28	628.3	325.30	0.0193	115.2	2.073	2.62	-14.59	1.43
	55.91	-65.72	75.67	0.00	0.0764	14.29	628.7	325.64	0.0193	115.1	2.072	2.62	-14.60	1.42
	56.89	-65.72	75.70	0.00	0.0764	14.28	628.3	325.32	0.0192	114.9	2.069	2.62	-14.61	1.43
	57.89	-64.82	75.67	0.00	0.0764	14.29	628.6	327.00	0.0192	115.2	2.073	2.64	-14.54	1.42
	58.89	-65.72	75.67	0.00	0.0763	14.27	628.0	325.26	0.0192	114.9	2.069	2.62	-14.62	1.42
	59.89	-65.72	75.67	0.00	0.0764	14.28	628.5	325.52	0.0192	115.0	2.071	2.62	-14.60	1.43
	60.91	-65.26	75.67	0.00	0.0764	14.28	628.3	326.15	0.0193	115.5	2.080	2.64	-14.53	1.43
	61.89	-65.72	75.67	0.00	0.0764	14.27	628.1	325.32	0.0193	115.4	2.077	2.63	-14.57	1.42
	62.91	-65.72	75.67	0.00	0.0765	14.29	628.8	325.67	0.0193	115.4	2.077	2.63	-14.57	1.42
	63.89	-65.72	75.70	0.00	0.0765	14.29	628.8	325.57	0.0194	115.4	2.077	2.63	-14.57	1.42
	64.91	-65.72	75.67	0.00	0.0764	14.27	628.1	325.33	0.0193	115.0	2.070	2.62	-14.61	1.42
	65.89	-65.72	75.67	0.00	0.0765	14.29	628.8	325.68	0.0192	115.4	2.076	2.63	-14.57	1.43
	66.91	-65.72	75.67	0.00	0.0765	14.29	628.6	325.61	0.0193	116.2	2.091	2.65	-14.48	1.43
	67.89	-65.72	75.70	0.00	0.0765	14.28	628.5	325.42	0.0193	115.4	2.078	2.63	-14.56	1.42
	68.91	-65.72	75.70	0.00	0.0765	14.29	628.7	325.51	0.0194	115.4	2.077	2.63	-14.57	1.42
	69.89	-65.72	75.67	0.00	0.0765	14.28	628.4	325.51	0.0193	115.7	2.083	2.64	-14.54	1.42
	70.91	-65.72	75.67	0.00	0.0765	14.28	628.3	325.44	0.0194	115.3	2.076	2.63	-14.58	1.42
	71.89	-65.26	75.67	0.00	0.0764	14.29	628.9	326.47	0.0192	115.4	2.077	2.64	-14.54	1.43
	72.91	-65.72	75.65	0.00	0.0765	14.29	628.9	325.87	0.0193	115.5	2.080	2.63	-14.55	1.42
	73.89	-65.72	75.70	0.00	0.0765	14.30	629.2	325.79	0.0193	115.7	2.083	2.64	-14.53	1.42
	74.91	-65.72	75.70	0.00	0.0765	14.30	629.0	325.68	0.0193	115.6	2.080	2.63	-14.55	1.42
	75.89	-65.72	75.70	0.00	0.0765	14.29	628.8	325.59	0.0194	115.4	2.077	2.63	-14.57	1.42
	76.91	-65.72	75.67	0.00	0.0765	14.31	629.4	326.03	0.0193	115.5	2.078	2.63	-14.56	1.42
	77.89	-65.72	75.67	0.00	0.0765	14.30	629.1	325.87	0.0192	115.7	2.082	2.64	-14.54	1.43
	78.91	-65.72	75.65	0.00	0.0764	14.30	629.2	326.04	0.0193	115.8	2.084	2.64	-14.53	1.42
	79.91	-65.72	75.67	0.00	0.0764	14.29	628.8	325.70	0.0193	115.7	2.082	2.64	-14.54	1.42
	80.89	-65.72	75.67	0.00	0.0764	14.30	629.3	325.94	0.0194	115.8	2.084	2.64	-14.53	1.42
	81.91	-65.26	75.70	0.00	0.0764	14.28	628.4	326.11	0.0193	115.6	2.081	2.64	-14.51	1.42
	82.89	-65.72	75.67	0.00	0.0764	14.30	629.0	325.82	0.0193	115.5	2.080	2.63	-14.55	1.42
	83.91	-65.72	75.67	0.00	0.0765	14.29	628.6	325.61	0.0194	115.7	2.083	2.64	-14.53	1.42
	84.89	-65.72	75.67	0.00	0.0765	14.30	629.3	325.94	0.0194	116.0	2.087	2.64	-14.51	1.42
	85.91	-65.25	75.67	0.00	0.0764	14.29	628.9	326.45	0.0194	116.0	2.088	2.65	-14.48	1.42
	86.89	-65.72	75.70	0.00	0.0764	14.30	629.3	325.83	0.0194	116.0	2.088	2.64	-14.50	1.42
	87.91	-65.72	75.72	0.00	0.0765	14.31	629.5	325.85	0.0193	115.9	2.086	2.64	-14.52	1.42
	88.89	-65.72	75.67	0.00	0.0765	14.30	629.0	325.82	0.0194	116.1	2.090	2.65	-14.49	1.42
	89.91	-65.72	75.67	0.00	0.0765	14.32	630.0	326.33	0.0194	116.4	2.095	2.65	-14.46	1.43
	90.89	-65.72	75.67	0.00	0.0765	14.31	629.7	326.17	0.0194	116.2	2.091	2.65	-14.49	1.42
	91.91	-65.72	75.70	0.00	0.0765	14.31	629.8	326.11	0.0194	116.2	2.092	2.65	-14.48	1.42
