Jun 12 2020 at 10:57:02
Frequency: 1.00Hz.
CO2
Zero:  Value:0.91  Date:May 19 2009 at 7:53:33 AM
Span:  Value:1.00  Date:May 19 2009 at 8:00:06 AM
H2O
Zero:  Value:0.77  Date:May 19 2009 at 7:54:01 AM
Span:  Value:1.01  Date:28 Jun 2004	 at 08:29:05	
	Relative Time	Temperature	Pressure	Aux Input	CO2 Absorptance	CO2 mmol/m3	CO2 mg/m3	CO2 umol/mol	H2O Absorptance	H2O mmol/m3	H2O g/m3	H2O mmol/mol	H2O(°C)	Cooler Voltage
	0.30	-65.26	76.58	0.00	0.0694	12.54	551.6	282.93	0.0324	212.6	3.826	4.80	-6.86	1.77
	1.30	-65.72	76.61	0.00	0.0693	12.54	551.7	282.26	0.0327	213.9	3.851	4.82	-6.81	1.78
	2.30	-65.72	76.58	0.00	0.0694	12.53	551.5	282.28	0.0329	216.5	3.896	4.87	-6.65	1.78
	3.30	-65.72	76.61	0.00	0.0693	12.54	551.6	282.22	0.0333	218.0	3.923	4.91	-6.56	1.78
	4.30	-65.72	76.58	0.00	0.0694	12.54	551.6	282.31	0.0334	220.3	3.965	4.96	-6.43	1.77
	5.28	-65.72	76.58	0.00	0.0693	12.54	551.6	282.33	0.0334	220.0	3.959	4.95	-6.44	1.78
	6.30	-65.72	76.58	0.00	0.0694	12.54	551.7	282.37	0.0336	221.3	3.984	4.98	-6.37	1.77
	7.28	-65.72	76.58	0.00	0.0693	12.55	552.0	282.50	0.0340	224.2	4.036	5.05	-6.20	1.78
	8.30	-65.72	76.58	0.00	0.0693	12.54	551.8	282.44	0.0340	226.4	4.075	5.10	-6.07	1.78
	9.28	-65.72	76.58	0.00	0.0694	12.54	551.6	282.29	0.0340	225.2	4.054	5.07	-6.14	1.77
	10.30	-65.72	76.58	0.00	0.0694	12.54	551.6	282.33	0.0342	225.8	4.065	5.09	-6.10	1.78
	11.28	-65.26	76.64	0.00	0.0694	12.54	551.8	282.85	0.0344	227.8	4.101	5.14	-5.96	1.78
	12.30	-65.72	76.61	0.00	0.0694	12.56	552.6	282.73	0.0349	232.5	4.185	5.23	-5.72	1.78
	13.28	-65.72	76.58	0.00	0.0694	12.54	552.0	282.50	0.0346	229.8	4.137	5.18	-5.87	1.78
	14.30	-65.72	76.56	0.00	0.0694	12.55	552.0	282.61	0.0348	231.4	4.165	5.21	-5.78	1.78
	15.28	-65.26	76.58	0.00	0.0694	12.55	552.3	283.31	0.0357	237.8	4.281	5.37	-5.39	1.78
	16.30	-65.72	76.61	0.00	0.0694	12.54	551.7	282.26	0.0350	232.9	4.193	5.24	-5.70	1.78
	17.28	-65.26	76.61	0.00	0.0694	12.54	551.8	282.95	0.0352	233.8	4.209	5.28	-5.62	1.78
	18.30	-65.72	76.53	0.00	0.0694	12.55	552.2	282.82	0.0356	236.1	4.249	5.32	-5.52	1.78
	19.28	-65.26	76.58	0.00	0.0694	12.55	552.4	283.34	0.0355	238.9	4.300	5.39	-5.34	1.78
	20.30	-65.72	76.58	0.00	0.0694	12.55	552.3	282.66	0.0356	238.4	4.292	5.37	-5.39	1.78
	21.28	-65.72	76.56	0.00	0.0694	12.55	552.3	282.77	0.0358	240.9	4.335	5.43	-5.26	1.78
	22.30	-65.72	76.58	0.00	0.0693	12.54	551.8	282.42	0.0359	238.9	4.299	5.38	-5.37	1.78
	23.36	-65.71	76.61	0.00	0.0694	12.54	552.0	282.41	0.0358	240.1	4.322	5.41	-5.29	1.78
	24.30	-65.72	76.56	0.00	0.0694	12.54	551.9	282.53	0.0360	240.9	4.336	5.43	-5.25	1.78
	25.30	-65.72	76.61	0.00	0.0694	12.55	552.3	282.56	0.0362	242.7	4.369	5.46	-5.15	1.78
	26.30	-65.72	76.58	0.00	0.0694	12.55	552.0	282.53	0.0363	243.9	4.391	5.49	-5.09	1.78
	27.30	-65.72	76.58	0.00	0.0694	12.55	552.1	282.56	0.0365	245.0	4.410	5.52	-5.03	1.78
	28.30	-65.26	76.58	0.00	0.0694	12.56	552.7	283.49	0.0368	251.6	4.529	5.68	-4.65	1.78
	29.30	-65.72	76.58	0.00	0.0693	12.54	551.9	282.48	0.0366	246.8	4.442	5.56	-4.94	1.78
	30.30	-65.72	76.58	0.00	0.0694	12.54	551.8	282.42	0.0367	246.2	4.432	5.54	-4.97	1.78
	31.30	-65.72	76.58	0.00	0.0694	12.55	552.1	282.58	0.0367	248.1	4.467	5.59	-4.86	1.78
	32.30	-65.72	76.64	0.00	0.0695	12.57	552.9	282.77	0.0371	252.9	4.553	5.69	-4.61	1.78
	33.30	-65.72	76.58	0.00	0.0694	12.55	552.3	282.68	0.0371	251.0	4.519	5.65	-4.71	1.78
	34.30	-65.72	76.58	0.00	0.0694	12.55	552.4	282.70	0.0372	251.0	4.517	5.65	-4.71	1.78
	35.30	-65.72	76.61	0.00	0.0694	12.56	552.5	282.69	0.0371	251.4	4.526	5.66	-4.69	1.78
	36.30	-65.72	76.56	0.00	0.0694	12.55	552.0	282.61	0.0372	251.7	4.531	5.67	-4.67	1.78
	37.30	-65.72	76.56	0.00	0.0694	12.55	552.2	282.71	0.0373	252.4	4.543	5.69	-4.64	1.78
	38.28	-65.26	76.58	0.00	0.0694	12.55	552.4	283.33	0.0374	253.8	4.569	5.73	-4.53	1.78
	39.30	-65.26	76.61	0.00	0.0694	12.55	552.3	283.22	0.0376	255.2	4.593	5.76	-4.46	1.78
	40.28	-65.26	76.58	0.00	0.0695	12.55	552.2	283.23	0.0376	255.2	4.594	5.76	-4.46	1.78
	41.30	-65.72	76.56	0.00	0.0694	12.57	552.9	283.08	0.0377	256.2	4.612	5.77	-4.44	1.78
	42.38	-65.26	76.61	0.00	0.0695	12.56	552.4	283.27	0.0379	258.1	4.646	5.82	-4.31	1.78
	43.30	-65.72	76.58	0.00	0.0694	12.56	552.5	282.75	0.0379	257.7	4.639	5.80	-4.36	1.78
	44.28	-65.72	76.58	0.00	0.0694	12.56	552.8	282.91	0.0381	259.7	4.674	5.85	-4.26	1.78
	45.30	-65.72	76.58	0.00	0.0695	12.57	552.9	282.99	0.0381	259.0	4.662	5.83	-4.29	1.78
	46.28	-65.72	76.58	0.00	0.0694	12.56	552.5	282.76	0.0382	259.8	4.677	5.85	-4.25	1.78
	47.30	-65.72	76.56	0.00	0.0695	12.56	552.8	283.00	0.0383	261.3	4.703	5.89	-4.18	1.78
	48.28	-65.26	76.58	0.00	0.0695	12.58	553.5	283.93	0.0392	264.5	4.761	5.97	-3.98	1.78
	49.30	-65.72	76.58	0.00	0.0695	12.56	552.8	282.91	0.0383	261.1	4.701	5.88	-4.19	1.78
	50.28	-65.72	76.58	0.00	0.0695	12.57	553.2	283.12	0.0384	262.3	4.722	5.91	-4.12	1.78
	51.30	-65.72	76.58	0.00	0.0694	12.57	553.0	283.04	0.0384	262.8	4.730	5.92	-4.10	1.78
	52.38	-65.25	76.58	0.00	0.0695	12.57	553.1	283.70	0.0385	262.7	4.729	5.93	-4.08	1.78
	53.30	-65.72	76.58	0.00	0.0695	12.58	553.5	283.27	0.0386	265.8	4.785	5.99	-3.95	1.78
	54.30	-65.72	76.58	0.00	0.0695	12.57	553.0	283.03	0.0388	264.5	4.761	5.96	-4.02	1.78
	55.30	-66.19	76.58	0.00	0.0695	12.58	553.7	282.74	0.0390	269.5	4.852	6.06	-3.79	1.78
	56.30	-65.72	76.61	0.00	0.0694	12.57	553.2	283.02	0.0388	265.1	4.772	5.97	-3.99	1.78
	57.30	-65.72	76.58	0.00	0.0695	12.58	553.3	283.18	0.0390	267.0	4.806	6.01	-3.89	1.78
	58.30	-66.19	76.58	0.00	0.0695	12.58	553.3	282.56	0.0392	267.3	4.812	6.01	-3.90	1.78
	59.30	-65.72	76.58	0.00	0.0695	12.58	553.5	283.30	0.0391	268.5	4.833	6.05	-3.81	1.78
	60.30	-65.72	76.58	0.00	0.0695	12.59	553.8	283.42	0.0394	270.5	4.869	6.09	-3.72	1.79
	61.30	-65.72	76.58	0.00	0.0695	12.58	553.6	283.34	0.0392	269.3	4.847	6.06	-3.78	1.78
	62.30	-65.73	76.56	0.00	0.0695	12.58	553.6	283.43	0.0393	269.2	4.845	6.06	-3.78	1.78
	63.30	-65.26	76.58	0.00	0.0696	12.59	553.9	284.11	0.0395	270.0	4.861	6.09	-3.71	1.78
	64.30	-65.26	76.58	0.00	0.0696	12.59	553.9	284.12	0.0394	269.4	4.850	6.08	-3.74	1.78
	65.30	-65.72	76.61	0.00	0.0696	12.58	553.6	283.21	0.0394	269.7	4.855	6.07	-3.76	1.79
	66.30	-65.72	76.58	0.00	0.0696	12.59	553.8	283.42	0.0394	270.7	4.873	6.10	-3.70	1.79
	67.30	-65.72	76.61	0.00	0.0695	12.59	553.7	283.30	0.0397	272.1	4.898	6.13	-3.64	1.79
	68.30	-65.72	76.58	0.00	0.0696	12.59	554.0	283.53	0.0396	272.2	4.900	6.13	-3.63	1.79
	69.30	-65.72	76.61	0.00	0.0696	12.60	554.2	283.55	0.0396	272.5	4.906	6.14	-3.62	1.79
	70.30	-65.72	76.58	0.00	0.0695	12.59	554.1	283.60	0.0398	274.0	4.932	6.17	-3.55	1.79
	71.30	-65.72	76.58	0.00	0.0696	12.59	553.9	283.47	0.0398	274.0	4.933	6.17	-3.54	1.79
	72.30	-66.19	76.56	0.00	0.0696	12.60	554.5	283.27	0.0400	276.5	4.977	6.22	-3.45	1.79
	73.28	-65.72	76.58	0.00	0.0697	12.61	555.0	284.03	0.0407	280.4	5.048	6.31	-3.23	1.79
	74.30	-65.72	76.58	0.00	0.0697	12.60	554.5	283.81	0.0403	278.2	5.008	6.26	-3.34	1.79
	75.28	-65.71	76.56	0.00	0.0696	12.60	554.4	283.84	0.0402	277.3	4.991	6.25	-3.38	1.79
	76.30	-65.26	76.58	0.00	0.0696	12.60	554.5	284.43	0.0402	277.4	4.994	6.26	-3.35	1.79
	77.28	-65.72	76.58	0.00	0.0697	12.60	554.4	283.72	0.0403	278.5	5.012	6.27	-3.33	1.79
	78.30	-65.26	76.58	0.00	0.0696	12.61	554.8	284.60	0.0405	279.8	5.037	6.32	-3.23	1.79
	79.28	-65.72	76.58	0.00	0.0697	12.60	554.5	283.80	0.0406	280.6	5.050	6.32	-3.23	1.79
	80.30	-65.26	76.61	0.00	0.0696	12.60	554.4	284.28	0.0407	280.7	5.052	6.33	-3.19	1.78
	81.30	-65.72	76.58	249.90	0.0697	12.61	554.7	283.91	0.0406	280.5	5.049	6.32	-3.23	1.79
	82.30	-65.26	76.61	0.00	0.0696	12.61	554.9	284.55	0.0407	281.5	5.066	6.35	-3.16	1.79
	83.30	-65.72	76.61	0.00	0.0698	12.63	555.8	284.33	0.0410	286.6	5.159	6.45	-2.94	1.79
	84.30	-65.72	76.58	0.00	0.0697	12.61	555.0	284.03	0.0409	284.1	5.113	6.40	-3.06	1.79
	85.30	-65.72	76.56	0.00	0.0697	12.62	555.2	284.25	0.0411	285.1	5.132	6.42	-3.01	1.79
	86.30	-65.72	76.61	0.00	0.0696	12.63	555.8	284.37	0.0411	287.8	5.180	6.48	-2.89	1.79
	87.30	-65.72	76.58	0.00	0.0697	12.62	555.3	284.19	0.0411	285.6	5.140	6.43	-2.99	1.79
	88.30	-65.72	76.56	0.00	0.0698	12.62	555.5	284.38	0.0412	285.9	5.146	6.44	-2.97	1.79
	89.30	-65.26	76.58	0.00	0.0697	12.62	555.3	284.81	0.0412	286.3	5.154	6.46	-2.93	1.79
	90.30	-65.72	76.56	0.00	0.0698	12.62	555.5	284.38	0.0413	287.0	5.166	6.47	-2.92	1.79
	91.30	-65.27	76.58	0.00	0.0698	12.63	555.7	285.01	0.0413	287.4	5.173	6.49	-2.88	1.79
	92.30	-65.72	76.58	0.00	0.0698	12.63	555.7	284.39	0.0415	288.4	5.192	6.50	-2.86	1.79
	93.30	-65.26	76.58	0.00	0.0698	12.63	555.7	285.05	0.0416	289.4	5.210	6.53	-2.78	1.79
	94.30	-65.72	76.58	0.00	0.0697	12.63	555.7	284.41	0.0416	289.7	5.215	6.52	-2.80	1.79
	95.30	-65.72	76.58	0.00	0.0698	12.66	556.9	285.01	0.0419	292.6	5.267	6.59	-2.66	1.79
	96.30	-65.72	76.58	0.00	0.0698	12.66	557.2	285.16	0.0419	295.8	5.325	6.66	-2.52	1.79
	97.30	-65.72	76.58	0.00	0.0698	12.64	556.1	284.60	0.0418	291.2	5.241	6.56	-2.73	1.79
	98.30	-65.72	76.58	0.00	0.0698	12.64	556.2	284.68	0.0419	292.7	5.268	6.59	-2.66	1.79
