Jun 12 2020 at 10:49:59
Frequency: 1.00Hz.
CO2
Zero:  Value:0.91  Date:May 19 2009 at 7:53:33 AM
Span:  Value:1.00  Date:May 19 2009 at 8:00:06 AM
H2O
Zero:  Value:0.77  Date:May 19 2009 at 7:54:01 AM
Span:  Value:1.01  Date:28 Jun 2004	 at 08:29:05	
	Relative Time	Temperature	Pressure	Aux Input	CO2 Absorptance	CO2 mmol/m3	CO2 mg/m3	CO2 umol/mol	H2O Absorptance	H2O mmol/m3	H2O g/m3	H2O mmol/mol	H2O(°C)	Cooler Voltage
	0.62	-65.72	76.61	0.00	0.0712	12.94	569.4	291.35	0.0139	80.2	1.443	1.81	-18.91	1.76
	1.61	-65.72	76.61	0.00	0.0711	12.95	569.9	291.56	0.0151	88.3	1.589	1.99	-17.78	1.76
	2.62	-65.72	76.58	0.00	0.0709	12.93	568.8	291.09	0.0155	92.4	1.663	2.08	-17.24	1.76
	3.61	-65.26	76.61	0.00	0.0705	12.85	565.2	289.80	0.0170	95.3	1.715	2.15	-16.84	1.76
	4.62	-65.72	76.61	0.00	0.0707	12.85	565.2	289.17	0.0161	96.3	1.733	2.17	-16.75	1.76
	5.61	-66.20	76.58	0.00	0.0711	12.95	569.7	290.89	0.0152	88.1	1.585	1.98	-17.83	1.76
	6.62	-65.26	76.61	0.00	0.0710	12.94	569.3	291.94	0.0155	90.0	1.620	2.03	-17.52	1.76
	7.61	-65.72	76.61	0.00	0.0709	12.91	568.1	290.63	0.0148	86.6	1.558	1.95	-18.01	1.76
	8.62	-65.72	76.61	0.00	0.0708	12.92	568.3	290.74	0.0152	86.7	1.560	1.95	-17.99	1.76
	9.61	-65.72	76.61	0.00	0.0707	12.92	568.3	290.78	0.0155	87.3	1.572	1.97	-17.90	1.76
	10.62	-65.72	76.66	0.00	0.0702	12.80	563.3	288.03	0.0175	101.2	1.822	2.28	-16.15	1.76
	11.61	-65.72	76.58	0.00	0.0711	13.18	579.7	296.71	0.0188	115.7	2.083	2.61	-14.53	1.76
	12.62	-65.26	76.61	0.00	0.0710	12.99	571.4	292.98	0.0174	97.9	1.762	2.21	-16.52	1.76
	13.69	-65.72	76.61	0.00	0.0710	12.87	566.4	289.76	0.0174	100.3	1.805	2.26	-16.26	1.76
	14.62	-65.72	76.61	0.00	0.0710	12.87	566.4	289.77	0.0160	95.2	1.713	2.14	-16.89	1.76
	15.62	-65.72	76.61	0.00	0.0710	12.94	569.2	291.20	0.0170	98.5	1.773	2.22	-16.47	1.76
	16.62	-65.26	76.58	0.00	0.0701	12.77	561.7	288.13	0.0197	111.7	2.010	2.52	-14.94	1.76
	17.62	-65.72	76.61	0.00	0.0703	12.79	563.0	288.02	0.0197	116.7	2.100	2.63	-14.43	1.76
	18.62	-65.72	76.61	0.00	0.0707	12.85	565.6	289.36	0.0179	106.7	1.920	2.40	-15.52	1.76
	19.62	-65.26	76.58	0.00	0.0708	12.90	567.4	291.03	0.0171	99.7	1.795	2.25	-16.30	1.76
	20.61	-65.72	76.64	0.00	0.0707	12.89	567.4	290.18	0.0174	106.0	1.907	2.38	-15.60	1.76
	21.62	-65.72	76.58	0.00	0.0705	12.84	564.9	289.09	0.0188	109.1	1.964	2.46	-15.24	1.76
	22.62	-65.26	76.61	0.00	0.0705	12.73	560.3	287.28	0.0208	137.5	2.474	3.10	-12.39	1.76
	23.62	-65.25	76.64	0.00	0.0704	12.79	563.0	288.57	0.0201	115.7	2.083	2.61	-14.51	1.76
	24.62	-65.72	76.58	0.00	0.0702	12.67	557.7	285.43	0.0213	141.6	2.549	3.19	-12.05	1.76
	25.62	-65.72	76.61	0.00	0.0705	12.79	562.7	287.89	0.0192	113.7	2.047	2.56	-14.75	1.76
	26.61	-65.25	76.61	0.00	0.0704	12.76	561.4	287.89	0.0200	118.8	2.138	2.68	-14.19	1.76
	27.62	-65.72	76.61	0.00	0.0711	12.93	569.1	291.15	0.0179	104.2	1.875	2.35	-15.80	1.76
	28.61	-65.72	76.61	0.00	0.0706	12.91	568.0	290.60	0.0177	98.9	1.780	2.23	-16.43	1.76
	29.62	-65.72	76.61	0.00	0.0710	12.93	568.9	291.07	0.0167	93.6	1.685	2.11	-17.08	1.76
	30.61	-65.72	76.61	0.00	0.0710	12.92	568.7	290.96	0.0157	91.4	1.645	2.06	-17.37	1.76
	31.62	-65.26	76.58	0.00	0.0705	12.80	563.0	288.77	0.0180	113.2	2.038	2.56	-14.77	1.76
	32.61	-65.26	76.61	0.00	0.0704	12.80	563.3	288.86	0.0190	112.1	2.018	2.53	-14.89	1.76
	33.62	-65.72	76.61	0.00	0.0699	12.74	560.4	286.72	0.0202	121.5	2.186	2.73	-13.94	1.75
	34.61	-65.72	76.58	0.00	0.0700	12.69	558.4	285.77	0.0208	130.1	2.342	2.93	-13.10	1.76
	35.62	-65.72	76.58	0.00	0.0699	12.68	557.8	285.50	0.0213	132.2	2.379	2.98	-12.90	1.76
	36.61	-65.26	76.61	0.00	0.0701	12.71	559.2	286.73	0.0207	123.9	2.230	2.80	-13.67	1.76
	37.62	-65.26	76.58	0.00	0.0698	12.68	558.1	286.27	0.0217	126.4	2.275	2.85	-13.43	1.76
	38.61	-65.72	76.61	0.00	0.0706	12.81	563.6	288.34	0.0187	113.3	2.040	2.55	-14.78	1.75
	39.62	-65.72	76.61	0.00	0.0700	12.71	559.3	286.18	0.0213	127.5	2.295	2.87	-13.35	1.75
	40.69	-65.72	76.58	0.00	0.0701	12.68	557.9	285.52	0.0231	132.8	2.391	2.99	-12.84	1.75
	41.62	-65.26	76.61	0.00	0.0707	12.89	567.2	290.84	0.0191	110.8	1.994	2.50	-15.04	1.75
	42.69	-65.72	76.58	0.00	0.0709	12.92	568.3	290.85	0.0181	105.5	1.899	2.38	-15.65	1.75
	43.62	-64.82	76.58	0.00	0.0710	12.94	569.2	292.59	0.0181	110.0	1.980	2.49	-15.09	1.76
	44.62	-65.72	76.61	0.00	0.0708	12.91	567.8	290.51	0.0190	109.8	1.976	2.47	-15.17	1.75
	45.62	-65.72	76.61	0.00	0.0706	12.89	567.3	290.22	0.0191	111.4	2.005	2.51	-15.00	1.75
	46.62	-65.72	76.61	0.00	0.0706	12.83	564.3	288.72	0.0199	119.7	2.154	2.69	-14.12	1.75
	47.62	-65.72	76.56	0.00	0.0710	12.91	568.2	290.91	0.0184	109.5	1.971	2.47	-15.20	1.75
	48.62	-65.72	76.64	0.00	0.0703	12.79	562.7	287.79	0.0212	127.1	2.288	2.86	-13.38	1.75
	49.62	-65.72	76.58	0.00	0.0702	12.73	560.2	286.72	0.0216	129.1	2.323	2.91	-13.20	1.76
	50.62	-65.26	76.64	0.00	0.0696	12.62	555.3	284.64	0.0234	141.7	2.551	3.20	-12.01	1.75
	51.62	-65.72	76.58	0.00	0.0695	12.59	554.0	283.52	0.0244	147.3	2.651	3.32	-11.56	1.75
	52.62	-65.26	76.61	0.00	0.0723	13.03	573.5	294.05	0.0216	132.2	2.380	2.98	-12.87	1.75
	53.61	-65.26	76.61	0.00	0.0703	12.83	564.7	289.57	0.0214	119.6	2.153	2.70	-14.10	1.75
	54.62	-66.19	76.58	0.00	0.0705	12.77	562.0	286.97	0.0205	126.9	2.285	2.85	-13.43	1.76
	55.62	-65.72	76.61	0.00	0.0703	12.81	563.5	288.32	0.0212	123.5	2.223	2.78	-13.74	1.76
	56.62	-65.72	76.61	0.00	0.0702	12.77	561.8	287.45	0.0221	125.8	2.265	2.83	-13.51	1.75
	57.61	-65.26	76.61	0.00	0.0699	12.65	556.8	285.49	0.0244	146.4	2.636	3.30	-11.61	1.75
	58.62	-65.72	76.61	0.00	0.0702	12.70	558.9	285.95	0.0227	145.8	2.625	3.28	-11.69	1.75
	59.61	-65.73	76.61	0.00	0.0703	12.73	560.3	286.63	0.0224	136.0	2.449	3.06	-12.55	1.75
	60.62	-65.72	76.58	0.00	0.0702	12.74	560.4	286.82	0.0230	139.3	2.507	3.14	-12.26	1.75
	61.61	-65.72	76.58	0.00	0.0699	12.60	554.3	283.71	0.0243	157.7	2.838	3.55	-10.71	1.75
	62.62	-65.72	76.58	0.00	0.0700	12.72	559.5	286.36	0.0219	129.3	2.327	2.91	-13.18	1.75
	63.61	-65.26	76.61	0.00	0.0697	12.69	558.2	286.23	0.0231	132.3	2.381	2.98	-12.87	1.75
	64.62	-65.26	76.56	0.00	0.0704	12.83	564.5	289.63	0.0231	138.7	2.496	3.13	-12.29	1.75
	65.61	-65.71	76.58	0.00	0.0700	12.67	557.6	285.38	0.0230	145.2	2.614	3.27	-11.74	1.75
	66.62	-65.26	76.61	0.00	0.0705	12.84	564.9	289.67	0.0207	121.4	2.186	2.74	-13.92	1.75
	67.61	-65.26	76.61	0.00	0.0702	12.71	559.3	286.79	0.0215	132.2	2.380	2.98	-12.87	1.75
	68.62	-65.72	76.61	0.00	0.0706	12.88	566.5	289.84	0.0218	131.6	2.370	2.96	-12.95	1.75
	69.69	-65.72	76.61	0.00	0.0707	12.78	562.1	287.60	0.0216	133.6	2.404	3.01	-12.78	1.75
	70.62	-65.72	76.58	0.00	0.0710	12.88	566.8	290.08	0.0207	127.2	2.289	2.86	-13.38	1.75
	71.69	-65.72	76.58	0.00	0.0706	12.90	567.4	290.40	0.0214	134.0	2.412	3.02	-12.74	1.75
	72.62	-65.72	76.61	0.00	0.0705	12.99	571.6	292.42	0.0227	134.9	2.429	3.04	-12.65	1.75
	73.62	-65.26	76.58	0.00	0.0705	12.79	563.0	288.76	0.0216	132.4	2.383	2.99	-12.86	1.75
	74.62	-65.73	76.53	0.00	0.0710	12.87	566.4	290.10	0.0210	130.5	2.350	2.94	-13.06	1.75
	75.62	-65.72	76.58	0.00	0.0703	12.79	562.7	287.99	0.0208	123.1	2.216	2.77	-13.77	1.75
	76.62	-65.72	76.58	0.00	0.0703	12.78	562.3	287.79	0.0220	128.8	2.319	2.90	-13.22	1.75
	77.62	-65.73	76.53	0.00	0.0708	12.88	566.9	290.35	0.0206	125.7	2.262	2.83	-13.53	1.75
	78.62	-65.72	76.56	0.00	0.0706	12.89	567.1	290.32	0.0211	124.5	2.242	2.81	-13.64	1.75
	79.62	-65.72	76.58	0.00	0.0705	12.77	561.8	287.54	0.0218	136.5	2.457	3.07	-12.51	1.75
	80.62	-65.26	76.61	0.00	0.0705	12.85	565.2	289.83	0.0217	122.9	2.212	2.77	-13.77	1.75
	81.62	-65.26	76.58	0.00	0.0706	12.81	563.8	289.20	0.0211	127.4	2.294	2.88	-13.33	1.75
	82.62	-66.19	76.58	0.00	0.0715	12.86	566.0	289.00	0.0201	129.2	2.326	2.90	-13.21	1.75
	83.62	-65.26	76.61	0.00	0.0727	12.82	564.2	289.30	0.0214	128.7	2.316	2.90	-13.21	1.75
	84.62	-65.72	76.58	0.00	0.0711	12.95	569.8	291.63	0.0182	107.0	1.927	2.41	-15.48	1.75
	85.62	-65.72	76.58	0.00	0.0711	12.95	569.9	291.67	0.0181	107.2	1.930	2.41	-15.46	1.75
	86.62	-65.72	76.61	0.00	0.0705	12.91	568.0	290.62	0.0208	114.5	2.062	2.58	-14.66	1.75
	87.62	-64.82	76.61	0.00	0.0702	12.73	559.9	287.72	0.0218	134.0	2.412	3.03	-12.68	1.75
	88.61	-65.72	76.56	0.00	0.0710	12.86	565.7	289.64	0.0185	119.5	2.151	2.69	-14.14	1.75
	89.62	-65.72	76.58	0.00	0.0711	12.94	569.4	291.44	0.0181	108.9	1.961	2.45	-15.26	1.75
	90.70	-65.72	76.58	0.00	0.0708	12.92	568.4	290.90	0.0189	111.4	2.005	2.51	-15.00	1.75
	91.62	-65.72	76.61	0.00	0.0711	12.93	568.8	291.00	0.0184	110.4	1.988	2.49	-15.10	1.75
	92.61	-65.72	76.58	0.00	0.0705	12.87	566.2	289.80	0.0200	117.7	2.119	2.65	-14.32	1.75
	93.62	-65.72	76.58	0.00	0.0703	12.79	563.0	288.12	0.0211	127.0	2.286	2.86	-13.40	1.75
	94.61	-65.72	76.58	0.00	0.0704	12.76	561.5	287.38	0.0212	128.6	2.315	2.90	-13.24	1.75
