Jun 23 2020 at 21:03:43
Frequency: 1.00Hz.
CO2
Zero:  Value:0.91  Date:May 19 2009 at 7:53:33 AM
Span:  Value:1.00  Date:May 19 2009 at 8:00:06 AM
H2O
Zero:  Value:0.77  Date:May 19 2009 at 7:54:01 AM
Span:  Value:1.01  Date:28 Jun 2004	 at 08:29:05	
	Relative Time	Temperature	Pressure	Aux Input	CO2 Absorptance	CO2 mmol/m3	CO2 mg/m3	CO2 umol/mol	H2O Absorptance	H2O mmol/m3	H2O g/m3	H2O mmol/mol	H2O(°C)	Cooler Voltage
	0.69	-65.72	74.06	0.00	0.0861	16.96	746.3	394.99	0.0409	286.5	5.156	6.67	-2.95	1.35
	1.67	-65.71	74.06	0.00	0.0849	16.71	735.1	389.04	0.0406	284.0	5.112	6.61	-3.06	1.35
	2.69	-65.72	74.01	0.00	0.0894	17.47	768.7	407.11	0.0412	287.1	5.168	6.69	-2.92	1.35
	3.67	-65.72	74.06	0.00	0.0844	16.58	729.5	386.10	0.0406	283.6	5.105	6.60	-3.08	1.36
	4.69	-65.72	74.06	0.00	0.0890	17.46	768.3	406.64	0.0413	287.4	5.174	6.69	-2.90	1.36
	5.75	-66.20	74.06	0.00	0.0881	17.00	748.0	394.97	0.0411	286.7	5.160	6.66	-2.97	1.35
	6.69	-65.72	74.03	0.00	0.0878	17.67	777.6	411.72	0.0412	289.3	5.207	6.74	-2.82	1.35
	7.69	-65.72	74.06	0.00	0.0873	17.37	764.2	404.46	0.0410	288.2	5.187	6.71	-2.87	1.35
	8.67	-65.72	74.08	0.00	0.0884	17.48	769.3	407.02	0.0412	287.8	5.181	6.70	-2.88	1.35
	9.69	-65.26	74.06	0.00	0.0844	16.98	747.0	396.20	0.0406	285.9	5.147	6.67	-2.94	1.35
	10.67	-65.71	74.06	0.00	0.0884	17.47	768.5	406.76	0.0412	288.5	5.193	6.72	-2.85	1.36
	11.70	-65.72	74.06	0.00	0.0864	17.00	748.1	395.94	0.0409	286.1	5.150	6.66	-2.97	1.35
	12.69	-65.72	74.06	0.00	0.0892	17.64	776.2	410.77	0.0413	289.8	5.216	6.75	-2.79	1.35
	13.70	-65.72	74.06	0.00	0.0867	17.34	763.0	403.84	0.0408	287.3	5.172	6.69	-2.91	1.35
	14.69	-65.72	74.08	0.00	0.0867	17.06	750.5	397.05	0.0408	285.7	5.143	6.65	-2.98	1.35
	15.70	-65.72	74.03	0.00	0.0889	17.59	773.8	409.69	0.0412	288.9	5.201	6.73	-2.83	1.35
	16.70	-65.72	74.08	0.00	0.0880	16.98	747.0	395.21	0.0410	285.8	5.144	6.65	-2.98	1.36
	17.70	-65.72	74.06	0.00	0.0875	17.38	764.8	404.77	0.0410	287.8	5.181	6.70	-2.88	1.35
	18.70	-65.72	74.06	0.00	0.0901	17.84	784.8	415.35	0.0414	289.9	5.218	6.75	-2.79	1.35
	19.69	-65.72	74.06	0.00	0.0867	16.80	739.0	391.15	0.0409	284.5	5.120	6.62	-3.04	1.35
	20.70	-65.72	74.08	0.00	0.0830	16.23	714.2	377.88	0.0402	280.8	5.055	6.54	-3.21	1.35
	21.69	-65.72	74.06	0.00	0.0820	15.80	695.1	367.89	0.0399	278.1	5.005	6.48	-3.35	1.36
	22.70	-65.72	74.08	0.00	0.0830	16.03	705.3	373.16	0.0402	279.6	5.033	6.51	-3.27	1.35
	23.69	-65.72	74.06	0.00	0.0853	17.57	772.9	409.08	0.0406	289.8	5.216	6.75	-2.79	1.35
	24.70	-65.72	74.06	0.00	0.0828	16.79	738.7	390.99	0.0401	283.4	5.101	6.60	-3.09	1.35
	25.69	-65.72	74.06	0.00	0.0888	17.44	767.3	406.10	0.0411	286.8	5.162	6.68	-2.94	1.35
	26.70	-65.72	74.08	0.00	0.0850	17.26	759.2	401.68	0.0403	285.4	5.137	6.64	-3.00	1.36
	27.70	-65.72	74.08	0.00	0.0884	17.87	786.3	416.01	0.0407	288.4	5.191	6.71	-2.86	1.36
	28.70	-65.71	74.06	0.00	0.0896	16.69	734.3	388.64	0.0413	279.1	5.023	6.50	-3.30	1.35
	29.70	-66.19	74.08	0.00	0.0898	17.76	781.3	412.43	0.0414	287.7	5.179	6.68	-2.92	1.35
	30.69	-65.72	74.06	0.00	0.0876	16.52	726.8	384.67	0.0407	277.3	4.992	6.46	-3.38	1.35
	31.70	-65.72	74.03	0.00	0.0823	15.74	692.6	366.71	0.0391	269.4	4.849	6.28	-3.77	1.35
	32.69	-66.19	74.06	0.00	0.0811	16.39	721.3	380.87	0.0388	275.4	4.956	6.40	-3.51	1.36
	33.70	-65.72	74.06	0.00	0.0795	15.38	676.6	358.09	0.0383	266.1	4.789	6.20	-3.94	1.36
	34.69	-65.72	74.08	0.00	0.0810	15.21	669.4	354.16	0.0389	264.8	4.766	6.16	-4.00	1.35
	35.70	-65.72	74.06	0.00	0.0778	14.67	645.3	341.54	0.0380	260.4	4.686	6.06	-4.23	1.35
	36.77	-65.26	74.06	0.00	0.0779	14.80	651.0	345.32	0.0380	261.3	4.704	6.10	-4.15	1.35
	37.70	-65.71	74.06	0.00	0.0777	14.79	650.6	344.33	0.0380	261.6	4.709	6.09	-4.16	1.35
	38.70	-65.72	74.06	0.00	0.0774	14.70	647.0	342.42	0.0379	260.3	4.685	6.06	-4.23	1.36
	39.70	-65.72	74.03	0.00	0.0772	14.57	640.9	339.33	0.0377	258.8	4.659	6.03	-4.30	1.35
	40.70	-65.72	74.08	0.00	0.0772	14.57	641.0	339.14	0.0377	258.5	4.654	6.02	-4.32	1.35
	41.69	-65.72	74.08	0.00	0.0783	14.62	643.4	340.41	0.0382	259.5	4.670	6.04	-4.27	1.35
	42.70	-65.72	74.06	0.00	0.0784	14.97	658.7	348.59	0.0382	263.4	4.741	6.13	-4.07	1.35
	43.69	-65.72	74.03	0.00	0.0787	14.95	657.9	348.29	0.0383	263.0	4.734	6.13	-4.09	1.35
	44.70	-65.72	74.06	0.00	0.0793	15.36	676.0	357.80	0.0385	267.6	4.816	6.23	-3.86	1.36
	45.70	-65.72	74.06	0.00	0.0793	15.08	663.3	351.07	0.0384	264.3	4.758	6.16	-4.02	1.35
	46.70	-65.72	74.01	0.00	0.0790	15.11	664.8	352.08	0.0385	265.1	4.771	6.18	-3.99	1.35
	47.70	-65.72	74.06	0.00	0.0793	15.03	661.3	350.02	0.0386	264.2	4.756	6.15	-4.03	1.35
	48.70	-65.72	74.06	0.00	0.0817	15.17	667.5	353.26	0.0391	265.4	4.776	6.18	-3.97	1.35
	49.70	-65.71	74.03	0.00	0.0782	14.76	649.3	343.79	0.0382	261.9	4.713	6.10	-4.15	1.35
	50.69	-65.72	74.08	0.00	0.0778	14.75	648.9	343.32	0.0380	261.9	4.715	6.10	-4.14	1.36
	51.70	-65.72	74.08	0.00	0.0777	14.71	647.3	342.48	0.0380	260.8	4.695	6.07	-4.20	1.35
	52.69	-65.72	74.06	0.00	0.0779	14.78	650.5	344.26	0.0381	261.5	4.707	6.09	-4.17	1.35
	53.70	-65.72	74.11	0.00	0.0781	14.95	657.9	347.96	0.0381	264.0	4.753	6.14	-4.04	1.35
	54.69	-65.72	74.06	0.00	0.0779	14.73	648.3	343.12	0.0381	261.0	4.698	6.08	-4.19	1.35
	55.70	-65.72	74.08	0.00	0.0801	14.69	646.3	341.94	0.0387	260.2	4.684	6.06	-4.23	1.35
	56.70	-65.72	74.06	0.00	0.0778	14.75	648.8	343.38	0.0380	260.9	4.697	6.08	-4.20	1.36
	57.70	-65.72	74.06	0.00	0.0781	14.84	652.8	345.51	0.0380	261.8	4.713	6.10	-4.15	1.35
	58.70	-65.72	74.06	0.00	0.0784	14.84	653.0	345.62	0.0382	262.2	4.719	6.11	-4.13	1.35
	59.70	-65.72	74.06	0.00	0.0782	14.88	654.8	346.58	0.0381	262.7	4.729	6.12	-4.11	1.35
	60.70	-65.72	74.06	0.00	0.0782	14.76	649.3	343.63	0.0381	260.2	4.683	6.06	-4.24	1.35
	61.69	-65.72	74.06	0.00	0.0781	14.77	650.0	344.00	0.0379	260.1	4.682	6.06	-4.24	1.35
	62.70	-65.26	74.06	0.00	0.0784	14.86	654.0	346.91	0.0380	261.4	4.705	6.10	-4.14	1.35
	63.78	-65.72	74.06	0.00	0.0785	14.98	659.0	348.77	0.0381	263.4	4.741	6.13	-4.07	1.35
	64.70	-65.72	74.08	0.00	0.0799	14.99	659.6	348.97	0.0386	263.0	4.735	6.12	-4.09	1.35
	65.70	-65.72	74.06	0.00	0.0816	15.50	682.1	360.98	0.0391	268.0	4.823	6.24	-3.84	1.35
	66.70	-65.72	74.11	0.00	0.0812	15.92	700.4	370.46	0.0390	271.0	4.879	6.31	-3.69	1.35
	67.70	-65.72	74.08	0.00	0.0826	15.77	693.9	367.10	0.0394	270.0	4.860	6.29	-3.74	1.35
	68.70	-65.72	74.06	0.00	0.0842	16.58	729.5	386.11	0.0400	280.2	5.043	6.52	-3.25	1.35
	69.70	-65.72	74.06	0.00	0.0805	15.96	702.3	371.71	0.0388	275.1	4.952	6.41	-3.49	1.35
	70.70	-65.72	74.06	0.00	0.0789	15.17	667.3	353.19	0.0383	264.9	4.769	6.17	-3.99	1.35
	71.70	-65.72	74.06	0.00	0.0787	14.93	657.0	347.74	0.0382	262.1	4.718	6.10	-4.14	1.35
	72.69	-65.72	74.06	0.00	0.0786	15.03	661.4	350.03	0.0382	263.1	4.736	6.13	-4.09	1.35
	73.70	-65.26	74.06	0.00	0.0812	15.85	697.3	369.85	0.0391	273.5	4.923	6.38	-3.54	1.35
	74.70	-65.72	74.08	0.00	0.0828	15.77	693.9	367.11	0.0396	272.8	4.911	6.35	-3.60	1.35
	75.70	-65.72	74.06	0.00	0.0856	16.59	730.1	386.41	0.0404	280.0	5.041	6.52	-3.25	1.35
	76.70	-65.26	74.06	0.00	0.0835	15.95	701.9	372.31	0.0397	274.0	4.932	6.39	-3.52	1.35
	77.70	-65.72	74.06	0.00	0.0809	15.53	683.5	361.73	0.0389	268.3	4.829	6.25	-3.83	1.35
	78.70	-65.72	74.06	0.00	0.0811	15.61	686.9	363.54	0.0390	269.0	4.842	6.26	-3.79	1.35
	79.70	-65.72	74.06	0.00	0.0815	15.64	688.0	364.10	0.0391	270.3	4.866	6.30	-3.72	1.35
	80.70	-65.72	74.08	0.00	0.0788	15.33	674.7	356.95	0.0384	266.9	4.805	6.21	-3.89	1.35
	81.70	-65.72	74.08	0.00	0.0809	15.63	687.9	363.93	0.0390	270.1	4.862	6.29	-3.73	1.35
	82.70	-65.72	74.06	0.00	0.0807	15.62	687.5	363.86	0.0391	271.2	4.882	6.32	-3.68	1.35
	83.78	-65.72	74.06	0.00	0.0803	15.47	680.7	360.26	0.0391	271.0	4.878	6.31	-3.69	1.35
	84.70	-65.72	74.06	0.00	0.0831	15.59	686.0	363.07	0.0397	271.7	4.890	6.33	-3.66	1.35
	85.70	-65.72	74.08	0.00	0.0832	16.25	715.1	378.35	0.0399	277.5	4.996	6.46	-3.37	1.35
	86.70	-64.82	74.06	0.00	0.0849	16.26	715.2	380.18	0.0401	275.3	4.956	6.44	-3.42	1.35
	87.70	-65.72	74.08	0.00	0.0832	15.92	700.6	370.64	0.0393	274.4	4.938	6.39	-3.53	1.35
	88.70	-65.72	74.06	0.00	0.0820	15.97	702.6	371.88	0.0392	270.6	4.871	6.30	-3.71	1.35
	89.70	-65.26	74.08	0.00	0.0815	15.62	687.3	364.44	0.0393	271.2	4.881	6.33	-3.65	1.35
	90.70	-65.72	74.08	0.00	0.0805	15.33	674.6	356.91	0.0391	268.6	4.835	6.25	-3.81	1.36
	91.70	-65.72	74.08	0.00	0.0819	15.87	698.5	369.54	0.0392	272.0	4.895	6.33	-3.65	1.35
	92.69	-65.26	74.06	0.00	0.0828	16.19	712.5	377.93	0.0396	277.4	4.994	6.48	-3.35	1.35
	93.70	-65.72	74.06	0.00	0.0837	16.30	717.1	379.52	0.0397	277.2	4.989	6.45	-3.39	1.35
	94.70	-65.72	74.06	0.00	0.0857	16.59	730.1	386.40	0.0402	278.2	5.007	6.48	-3.34	1.35
	95.70	-65.26	74.06	0.00	0.0850	16.43	723.1	383.57	0.0401	278.1	5.006	6.49	-3.32	1.36
