Jun 23 2020 at 20:35:35
Frequency: 1.00Hz.
CO2
Zero:  Value:0.91  Date:May 19 2009 at 7:53:33 AM
Span:  Value:1.00  Date:May 19 2009 at 8:00:06 AM
H2O
Zero:  Value:0.77  Date:May 19 2009 at 7:54:01 AM
Span:  Value:1.01  Date:28 Jun 2004	 at 08:29:05	
	Relative Time	Temperature	Pressure	Aux Input	CO2 Absorptance	CO2 mmol/m3	CO2 mg/m3	CO2 umol/mol	H2O Absorptance	H2O mmol/m3	H2O g/m3	H2O mmol/mol	H2O(°C)	Cooler Voltage
	1.05	-65.72	74.01	0.00	0.0764	14.36	632.0	334.71	0.0395	273.9	4.931	6.38	-3.55	1.42
	1.97	-65.72	74.03	0.00	0.0763	14.37	632.1	334.68	0.0395	274.5	4.940	6.39	-3.52	1.42
	2.97	-65.72	74.03	0.00	0.0764	14.36	632.0	334.61	0.0395	274.2	4.936	6.39	-3.54	1.42
	3.97	-65.72	74.03	0.00	0.0765	14.38	632.5	334.88	0.0397	275.0	4.950	6.41	-3.50	1.42
	4.97	-65.72	74.01	0.00	0.0765	14.38	632.7	335.08	0.0397	275.0	4.951	6.41	-3.49	1.42
	5.97	-66.68	74.03	0.00	0.0765	14.39	633.2	333.69	0.0397	276.5	4.977	6.41	-3.49	1.42
	6.97	-65.72	74.01	0.00	0.0764	14.40	633.5	335.53	0.0398	276.5	4.977	6.44	-3.42	1.42
	7.97	-65.72	73.98	0.00	0.0766	14.41	634.1	335.93	0.0400	278.1	5.005	6.48	-3.35	1.42
	8.97	-65.26	74.03	0.00	0.0766	14.43	634.8	336.82	0.0401	278.8	5.019	6.51	-3.28	1.42
	10.05	-65.72	74.01	0.00	0.0766	14.42	634.4	335.99	0.0401	278.4	5.012	6.49	-3.33	1.41
	10.97	-65.73	74.01	0.00	0.0765	14.43	634.8	336.21	0.0400	278.8	5.018	6.50	-3.31	1.42
	11.97	-65.26	74.01	0.00	0.0766	14.44	635.3	337.19	0.0400	278.6	5.015	6.51	-3.29	1.42
	12.97	-65.72	74.01	0.00	0.0766	14.42	634.6	336.08	0.0401	278.5	5.013	6.49	-3.33	1.42
	13.97	-65.72	74.03	0.00	0.0767	14.44	635.3	336.37	0.0400	279.4	5.030	6.51	-3.28	1.42
	14.97	-65.72	74.01	0.00	0.0767	14.46	636.1	336.91	0.0403	279.8	5.036	6.52	-3.27	1.41
	15.97	-65.72	74.01	0.00	0.0768	14.46	636.2	336.95	0.0403	280.7	5.053	6.54	-3.22	1.42
	16.97	-65.72	74.01	0.00	0.0768	14.48	637.1	337.40	0.0405	280.8	5.055	6.54	-3.22	1.42
	17.97	-65.72	74.01	0.00	0.0768	14.46	636.4	337.05	0.0402	280.6	5.051	6.54	-3.23	1.42
	19.05	-65.72	74.01	0.00	0.0768	14.47	636.7	337.19	0.0403	281.2	5.061	6.55	-3.20	1.42
	19.97	-65.72	74.01	0.00	0.0769	14.49	637.7	337.75	0.0404	282.2	5.080	6.58	-3.15	1.41
	20.97	-65.72	74.01	0.00	0.0770	14.51	638.3	338.04	0.0405	283.2	5.098	6.60	-3.10	1.42
	21.97	-65.26	74.01	0.00	0.0769	14.51	638.6	338.94	0.0405	283.3	5.100	6.62	-3.07	1.42
	22.97	-65.72	74.03	0.00	0.0770	14.51	638.6	338.09	0.0406	282.7	5.089	6.59	-3.12	1.42
	23.97	-65.72	74.01	0.00	0.0769	14.54	639.6	338.73	0.0405	283.8	5.109	6.61	-3.07	1.42
	24.97	-65.72	74.01	0.00	0.0771	14.54	639.6	338.75	0.0407	285.0	5.131	6.64	-3.02	1.42
	25.97	-65.26	74.01	0.00	0.0770	14.53	639.5	339.42	0.0408	284.6	5.123	6.65	-3.01	1.41
	26.97	-65.72	74.03	0.00	0.0770	14.54	639.6	338.63	0.0407	284.1	5.114	6.62	-3.06	1.42
	27.97	-65.72	74.03	0.00	0.0772	14.56	640.6	339.14	0.0407	285.3	5.136	6.65	-3.00	1.41
	28.97	-65.72	74.01	0.00	0.0772	14.55	640.4	339.17	0.0410	285.3	5.136	6.65	-3.00	1.41
	29.97	-65.72	74.03	0.00	0.0772	14.57	641.1	339.40	0.0409	285.4	5.137	6.65	-3.00	1.42
	30.97	-65.72	74.03	0.00	0.0771	14.58	641.6	339.70	0.0409	286.5	5.157	6.67	-2.95	1.41
	32.05	-65.72	74.03	0.00	0.0773	14.61	642.8	340.30	0.0411	288.0	5.183	6.71	-2.88	1.41
	32.97	-65.72	74.01	0.00	0.0773	14.59	642.1	340.09	0.0410	287.2	5.169	6.69	-2.91	1.41
	33.97	-65.72	73.98	0.00	0.0772	14.59	642.1	340.22	0.0411	286.6	5.159	6.68	-2.94	1.42
	34.97	-65.72	74.01	0.00	0.0773	14.61	642.9	340.50	0.0410	287.4	5.174	6.70	-2.90	1.42
	35.97	-66.19	74.03	0.00	0.0774	14.61	643.0	339.65	0.0411	287.6	5.176	6.68	-2.93	1.42
	36.97	-65.72	74.01	0.00	0.0774	14.62	643.5	340.79	0.0413	288.5	5.192	6.72	-2.86	1.41
	37.97	-65.72	74.01	0.00	0.0774	14.65	644.4	341.29	0.0412	289.3	5.208	6.74	-2.81	1.41
	38.97	-65.72	74.03	0.00	0.0775	14.65	644.6	341.26	0.0413	289.0	5.202	6.73	-2.83	1.41
	39.97	-65.72	74.01	0.00	0.0775	14.64	644.3	341.22	0.0413	288.7	5.196	6.73	-2.85	1.41
	41.05	-65.72	74.03	0.00	0.0775	14.65	644.6	341.29	0.0413	289.6	5.212	6.75	-2.80	1.42
	41.97	-65.72	73.98	0.00	0.0775	14.65	644.6	341.52	0.0413	289.2	5.205	6.74	-2.82	1.42
	42.97	-65.72	73.98	0.00	0.0776	14.68	646.0	342.24	0.0413	290.2	5.224	6.77	-2.77	1.42
	43.97	-65.72	74.03	0.00	0.0776	14.68	646.1	342.05	0.0414	290.3	5.226	6.76	-2.77	1.41
	44.97	-65.72	74.03	0.00	0.0778	14.70	646.7	342.41	0.0415	291.1	5.240	6.78	-2.73	1.41
	45.97	-65.72	74.01	0.00	0.0776	14.68	646.1	342.18	0.0413	290.2	5.223	6.76	-2.78	1.42
	46.97	-65.72	74.01	0.00	0.0776	14.71	647.0	342.68	0.0415	291.1	5.240	6.78	-2.73	1.42
	47.97	-65.72	74.03	0.00	0.0777	14.72	647.8	342.99	0.0413	292.4	5.264	6.81	-2.67	1.41
	48.97	-65.72	74.01	0.00	0.0778	14.73	648.0	343.21	0.0415	292.8	5.270	6.82	-2.65	1.41
	49.97	-65.72	74.03	0.00	0.0779	14.73	648.1	343.11	0.0417	293.0	5.274	6.83	-2.65	1.41
	50.97	-65.72	74.01	0.00	0.0778	14.73	648.0	343.19	0.0415	292.5	5.266	6.82	-2.67	1.41
	52.05	-65.72	74.01	0.00	0.0778	14.73	648.3	343.37	0.0417	292.4	5.264	6.81	-2.67	1.41
	52.97	-65.72	74.03	0.00	0.0780	14.75	648.9	343.57	0.0417	293.2	5.278	6.83	-2.63	1.42
	53.97	-65.72	74.03	0.00	0.0780	14.76	649.5	343.89	0.0417	294.3	5.298	6.86	-2.58	1.41
	54.97	-65.72	74.03	0.00	0.0780	14.77	649.7	343.99	0.0418	294.4	5.300	6.86	-2.58	1.41
	55.97	-65.72	74.03	0.00	0.0779	14.77	650.0	344.15	0.0418	294.4	5.299	6.86	-2.58	1.41
	56.97	-65.72	74.03	0.00	0.0781	14.77	649.7	343.97	0.0418	293.9	5.290	6.85	-2.60	1.41
	57.97	-65.72	74.03	0.00	0.0780	14.80	651.1	344.72	0.0419	295.7	5.323	6.89	-2.52	1.41
	58.97	-65.72	73.98	0.00	0.0781	14.80	651.2	345.00	0.0419	295.0	5.310	6.88	-2.55	1.42
	59.97	-65.72	74.01	0.00	0.0781	14.79	650.8	344.69	0.0420	295.3	5.315	6.88	-2.54	1.41
	60.97	-65.72	74.01	0.00	0.0782	14.80	651.3	344.95	0.0421	295.7	5.322	6.89	-2.52	1.41
	61.97	-65.26	74.03	0.00	0.0782	14.81	651.8	345.86	0.0419	296.2	5.331	6.91	-2.47	1.41
	62.98	-65.72	74.01	0.00	0.0781	14.83	652.4	345.53	0.0419	295.5	5.320	6.89	-2.53	1.41
	63.97	-65.72	74.03	0.00	0.0781	14.83	652.3	345.37	0.0420	295.5	5.319	6.88	-2.53	1.41
	64.97	-66.19	74.03	0.00	0.0783	14.83	652.4	344.63	0.0420	296.6	5.338	6.89	-2.51	1.41
	65.97	-65.26	74.01	0.00	0.0783	14.84	652.8	346.48	0.0420	296.3	5.334	6.92	-2.46	1.41
	66.97	-65.26	74.01	0.00	0.0783	14.87	654.2	347.27	0.0422	297.6	5.357	6.95	-2.40	1.41
	67.97	-66.19	74.01	0.00	0.0783	14.85	653.3	345.21	0.0421	297.0	5.346	6.91	-2.49	1.41
	68.97	-65.26	74.01	0.00	0.0783	14.86	653.8	347.06	0.0422	297.2	5.349	6.94	-2.43	1.41
	70.05	-65.72	74.03	0.00	0.0784	14.88	654.6	346.59	0.0423	297.6	5.356	6.93	-2.44	1.41
	70.97	-65.72	74.01	0.00	0.0784	14.89	655.0	346.90	0.0423	298.1	5.366	6.95	-2.41	1.41
	71.98	-65.72	74.01	0.00	0.0783	14.89	655.1	346.93	0.0422	298.1	5.365	6.95	-2.41	1.41
	72.97	-65.72	74.01	0.00	0.0784	14.89	655.2	347.00	0.0423	298.5	5.373	6.96	-2.40	1.41
	73.98	-65.71	74.01	0.00	0.0785	14.89	655.3	347.06	0.0423	298.6	5.375	6.96	-2.39	1.41
	74.97	-65.72	74.01	0.00	0.0786	14.91	656.2	347.53	0.0424	298.9	5.381	6.97	-2.37	1.41
	75.97	-65.72	74.01	0.00	0.0786	14.93	656.8	347.87	0.0423	299.5	5.391	6.98	-2.35	1.41
	76.97	-65.72	74.03	0.00	0.0784	14.92	656.4	347.51	0.0423	299.2	5.386	6.97	-2.36	1.41
	77.97	-65.26	74.03	0.00	0.0786	14.95	657.7	349.00	0.0425	300.7	5.413	7.02	-2.27	1.41
	78.97	-65.72	74.01	0.00	0.0785	14.93	657.1	348.01	0.0424	299.8	5.396	6.99	-2.34	1.41
	79.97	-65.72	74.03	0.00	0.0787	14.94	657.5	348.12	0.0426	300.1	5.401	6.99	-2.32	1.41
	80.97	-65.26	74.01	0.00	0.0787	14.94	657.3	348.90	0.0424	299.8	5.396	7.00	-2.31	1.41
	81.97	-65.72	74.03	0.00	0.0788	14.94	657.4	348.08	0.0426	299.7	5.394	6.98	-2.34	1.41
	83.05	-65.72	74.03	0.00	0.0788	14.96	658.4	348.59	0.0426	300.7	5.413	7.01	-2.29	1.41
	83.97	-65.72	74.03	0.00	0.0788	14.97	658.6	348.70	0.0426	300.6	5.411	7.00	-2.30	1.41
	84.98	-65.72	74.01	0.00	0.0787	14.97	658.8	348.90	0.0425	301.2	5.422	7.02	-2.27	1.41
	85.97	-65.72	74.01	0.00	0.0789	14.99	659.5	349.27	0.0426	301.8	5.432	7.03	-2.25	1.41
	86.97	-65.26	74.01	0.00	0.0788	14.99	659.7	350.15	0.0427	301.3	5.423	7.04	-2.24	1.41
	87.97	-65.72	74.03	0.00	0.0788	14.99	659.6	349.21	0.0426	301.7	5.431	7.03	-2.25	1.42
	88.97	-65.72	74.01	0.00	0.0790	15.01	660.6	349.90	0.0427	303.1	5.456	7.06	-2.19	1.41
	89.97	-65.26	74.03	0.00	0.0789	15.00	660.0	350.20	0.0427	302.3	5.442	7.06	-2.19	1.41
	90.97	-65.25	74.01	0.00	0.0789	15.02	660.7	350.69	0.0428	302.1	5.437	7.06	-2.20	1.41
	92.05	-65.72	74.03	0.00	0.0790	15.02	660.8	349.86	0.0428	302.3	5.442	7.04	-2.22	1.41
	92.97	-65.72	74.01	0.00	0.0790	15.02	660.8	349.98	0.0427	302.5	5.445	7.05	-2.21	1.41
	93.98	-65.71	74.06	0.00	0.0790	15.04	662.0	350.36	0.0428	303.6	5.466	7.07	-2.16	1.41
	94.97	-65.72	74.03	0.00	0.0790	15.05	662.2	350.62	0.0428	303.7	5.467	7.08	-2.16	1.41
	95.98	-65.72	74.01	0.00	0.0791	15.05	662.2	350.70	0.0429	303.5	5.464	7.07	-2.17	1.41
	96.97	-65.71	74.01	0.00	0.0791	15.07	662.9	351.11	0.0430	303.6	5.465	7.08	-2.16	1.41
	97.97	-66.19	74.01	0.00	0.0792	15.06	662.6	350.11	0.0429	303.5	5.462	7.06	-2.20	1.41
	98.97	-65.72	74.03	0.00	0.0791	15.08	663.3	351.18	0.0429	304.2	5.475	7.09	-2.14	1.41
	99.97	-65.72	73.98	0.00	0.0791	15.10	664.3	351.94	0.0430	304.7	5.484	7.10	-2.12	1.41
