Jun 18 2020 at 11:48:27
Frequency: 1.00Hz.
CO2
Zero:  Value:0.91  Date:May 19 2009 at 7:53:33 AM
Span:  Value:1.00  Date:May 19 2009 at 8:00:06 AM
H2O
Zero:  Value:0.77  Date:May 19 2009 at 7:54:01 AM
Span:  Value:1.01  Date:28 Jun 2004	 at 08:29:05	
	Relative Time	Temperature	Pressure	Aux Input	CO2 Absorptance	CO2 mmol/m3	CO2 mg/m3	CO2 umol/mol	H2O Absorptance	H2O mmol/m3	H2O g/m3	H2O mmol/mol	H2O(°C)	Cooler Voltage
	0.09	-65.72	73.77	0.00	0.0680	12.35	543.2	288.62	0.0441	315.4	5.678	7.37	-1.65	1.58
	1.09	-65.72	73.77	0.00	0.0680	12.35	543.4	288.72	0.0451	316.8	5.702	7.41	-1.59	1.58
	2.09	-65.72	73.75	0.00	0.0680	12.36	543.8	289.01	0.0449	323.8	5.829	7.57	-1.29	1.58
	3.09	-64.82	73.77	0.00	0.0680	12.35	543.5	290.05	0.0452	321.9	5.793	7.56	-1.31	1.58
	4.09	-65.72	73.77	0.00	0.0680	12.36	543.7	288.85	0.0448	323.1	5.816	7.55	-1.32	1.58
	5.09	-65.72	73.77	0.00	0.0680	12.35	543.5	288.75	0.0453	322.8	5.810	7.55	-1.34	1.58
	6.09	-65.72	73.75	0.00	0.0680	12.36	543.7	288.99	0.0451	325.6	5.861	7.61	-1.22	1.58
	7.17	-65.72	73.75	0.00	0.0680	12.36	543.9	289.05	0.0453	327.1	5.888	7.65	-1.15	1.58
	8.09	-65.72	73.77	0.00	0.0680	12.36	543.8	288.94	0.0454	328.2	5.908	7.67	-1.11	1.58
	9.11	-65.72	73.77	0.00	0.0680	12.37	544.2	289.12	0.0459	334.3	6.017	7.81	-0.86	1.58
	10.09	-66.19	73.77	0.00	0.0680	12.36	544.1	288.40	0.0458	331.8	5.972	7.74	-0.99	1.58
	11.11	-65.72	73.77	0.00	0.0681	12.36	544.0	289.02	0.0462	331.4	5.965	7.75	-0.97	1.58
	12.09	-65.72	73.77	0.00	0.0681	12.38	544.7	289.38	0.0464	342.7	6.168	8.01	-0.52	1.58
	13.11	-65.72	73.77	0.00	0.0680	12.37	544.4	289.27	0.0464	338.6	6.094	7.92	-0.68	1.58
	14.09	-64.82	73.77	0.00	0.0680	12.37	544.3	290.46	0.0462	337.2	6.069	7.92	-0.68	1.58
	15.11	-66.20	73.75	0.00	0.0681	12.37	544.4	288.69	0.0468	338.7	6.096	7.90	-0.71	1.58
	16.09	-65.26	73.77	0.00	0.0681	12.38	544.6	289.99	0.0471	342.8	6.170	8.03	-0.48	1.58
	17.09	-65.72	73.77	0.00	0.0681	12.37	544.2	289.16	0.0466	338.1	6.085	7.90	-0.70	1.58
	18.09	-65.72	73.77	0.00	0.0682	12.40	545.6	289.87	0.0475	345.0	6.210	8.07	-0.42	1.58
	19.09	-65.72	73.77	0.00	0.0681	12.41	546.0	290.10	0.0477	350.4	6.307	8.19	-0.21	1.58
	20.09	-65.72	73.77	0.00	0.0681	12.39	545.1	289.61	0.0472	344.9	6.208	8.06	-0.43	1.58
	21.09	-65.72	73.77	0.00	0.0681	12.38	544.8	289.48	0.0472	344.4	6.199	8.05	-0.45	1.58
	22.09	-65.72	73.77	0.00	0.0681	12.38	544.8	289.45	0.0473	344.5	6.201	8.05	-0.45	1.58
	23.09	-66.19	73.77	0.00	0.0681	12.38	544.9	288.83	0.0473	346.4	6.234	8.08	-0.40	1.58
	24.09	-65.72	73.77	0.00	0.0681	12.39	545.1	289.62	0.0475	348.3	6.270	8.14	-0.29	1.58
	25.09	-65.72	73.77	0.00	0.0682	12.40	545.7	289.94	0.0484	355.8	6.405	8.32	0.00	1.58
	26.17	-65.26	73.75	0.00	0.0681	12.39	545.3	290.44	0.0478	350.2	6.303	8.21	-0.19	1.58
	27.09	-66.19	73.77	0.00	0.0681	12.39	545.0	288.88	0.0478	348.7	6.277	8.13	-0.31	1.58
	28.11	-65.26	73.77	0.00	0.0682	12.39	545.3	290.38	0.0481	352.1	6.338	8.25	-0.11	1.58
	29.09	-65.72	73.77	0.00	0.0683	12.42	546.4	290.29	0.0496	363.6	6.545	8.50	0.30	1.58
	30.11	-65.26	73.77	0.00	0.0682	12.40	545.6	290.52	0.0484	354.9	6.388	8.31	-0.01	1.58
	31.09	-65.72	73.75	0.00	0.0682	12.40	545.8	290.08	0.0484	356.8	6.423	8.34	0.04	1.58
	32.11	-65.72	73.75	0.00	0.0682	12.40	545.7	290.02	0.0486	357.1	6.427	8.35	0.05	1.58
	33.09	-65.72	73.77	0.00	0.0682	12.41	546.1	290.14	0.0489	360.6	6.490	8.43	0.18	1.58
	34.11	-65.72	73.75	0.00	0.0682	12.41	546.1	290.23	0.0488	360.4	6.486	8.43	0.17	1.58
	35.09	-65.72	73.80	0.00	0.0683	12.41	546.2	290.13	0.0490	362.0	6.515	8.46	0.24	1.58
	36.09	-65.72	73.77	0.00	0.0682	12.41	546.2	290.21	0.0490	363.4	6.542	8.50	0.29	1.58
	37.09	-65.72	73.77	0.00	0.0683	12.42	546.6	290.39	0.0494	365.1	6.572	8.54	0.36	1.58
	38.09	-65.73	73.77	0.00	0.0683	12.42	546.7	290.43	0.0494	366.5	6.597	8.57	0.41	1.58
	39.09	-65.72	73.77	0.00	0.0683	12.44	547.4	290.82	0.0496	371.2	6.682	8.68	0.59	1.58
	40.09	-65.72	73.77	0.00	0.0684	12.43	546.8	290.54	0.0497	369.5	6.650	8.64	0.52	1.58
	41.09	-65.73	73.80	0.00	0.0683	12.42	546.5	290.27	0.0497	368.0	6.625	8.60	0.46	1.58
	42.09	-65.72	73.77	0.00	0.0683	12.43	547.1	290.67	0.0500	370.8	6.674	8.67	0.57	1.58
	43.17	-65.72	73.77	0.00	0.0684	12.44	547.3	290.80	0.0502	373.9	6.731	8.74	0.69	1.58
	44.09	-65.72	73.77	0.00	0.0684	12.45	547.6	290.95	0.0504	376.0	6.768	8.79	0.76	1.58
	45.11	-65.72	73.77	0.00	0.0684	12.45	547.7	291.02	0.0505	377.0	6.786	8.81	0.80	1.58
	46.09	-65.72	73.75	0.00	0.0684	12.45	547.7	291.12	0.0506	377.2	6.790	8.82	0.81	1.58
	47.11	-65.72	73.77	0.00	0.0684	12.45	547.7	291.02	0.0507	378.2	6.807	8.84	0.84	1.58
	48.09	-66.68	73.75	0.00	0.0684	12.46	548.2	289.99	0.0508	380.8	6.855	8.86	0.87	1.58
	49.11	-65.72	73.77	0.00	0.0684	12.45	547.9	291.11	0.0508	380.0	6.840	8.88	0.91	1.58
	50.09	-65.26	73.77	0.00	0.0684	12.46	548.1	291.87	0.0509	381.7	6.871	8.94	1.00	1.58
	51.11	-65.72	73.77	0.00	0.0684	12.46	548.4	291.35	0.0511	383.2	6.898	8.96	1.03	1.58
	52.09	-65.72	73.77	0.00	0.0685	12.47	548.5	291.45	0.0512	384.9	6.928	9.00	1.09	1.58
	53.11	-65.72	73.80	0.00	0.0685	12.46	548.3	291.20	0.0512	384.6	6.923	8.99	1.08	1.58
	54.09	-65.26	73.75	0.00	0.0685	12.47	548.7	292.25	0.0514	385.7	6.943	9.04	1.15	1.58
	55.11	-65.72	73.75	0.00	0.0686	12.48	548.9	291.75	0.0517	386.5	6.957	9.04	1.14	1.58
	56.09	-65.72	73.77	0.00	0.0686	12.48	549.1	291.76	0.0517	388.9	7.000	9.09	1.23	1.58
	57.09	-65.72	73.77	0.00	0.0686	12.48	549.3	291.85	0.0521	390.9	7.036	9.14	1.30	1.58
	58.09	-65.72	73.77	0.00	0.0685	12.49	549.6	292.02	0.0521	392.5	7.065	9.18	1.36	1.58
	59.09	-65.72	73.77	0.00	0.0686	12.49	549.6	291.98	0.0522	393.1	7.075	9.19	1.38	1.58
	60.09	-65.72	73.77	0.00	0.0685	12.49	549.7	292.03	0.0523	394.1	7.094	9.21	1.41	1.58
	61.09	-65.72	73.75	0.00	0.0687	12.49	549.8	292.20	0.0531	394.4	7.099	9.22	1.42	1.58
	62.11	-65.72	73.77	0.00	0.0686	12.50	550.2	292.31	0.0525	397.4	7.153	9.29	1.53	1.58
	63.09	-65.72	73.77	0.00	0.0686	12.51	550.4	292.42	0.0527	399.7	7.195	9.34	1.61	1.58
	64.11	-65.72	73.77	0.00	0.0686	12.50	549.9	292.16	0.0524	397.1	7.149	9.28	1.52	1.58
	65.09	-65.72	73.77	0.00	0.0686	12.50	549.8	292.11	0.0525	396.2	7.132	9.26	1.49	1.58
	66.11	-65.72	73.77	0.00	0.0686	12.50	550.1	292.27	0.0527	397.8	7.160	9.30	1.54	1.58
	67.09	-65.72	73.77	0.00	0.0686	12.52	550.8	292.65	0.0527	401.1	7.220	9.38	1.66	1.58
	68.11	-65.71	73.75	0.00	0.0689	12.52	551.0	292.87	0.0540	404.1	7.274	9.45	1.77	1.58
	69.09	-65.26	73.77	0.00	0.0687	12.52	550.9	293.32	0.0531	402.5	7.245	9.43	1.74	1.58
	70.11	-65.72	73.77	0.00	0.0687	12.52	551.0	292.76	0.0532	403.8	7.268	9.44	1.75	1.58
	71.09	-65.72	73.77	0.00	0.0687	12.51	550.6	292.54	0.0531	402.3	7.241	9.40	1.70	1.58
	72.11	-65.26	73.77	0.00	0.0687	12.52	551.0	293.42	0.0533	405.0	7.289	9.49	1.83	1.58
	73.09	-65.72	73.77	0.00	0.0687	12.52	551.0	292.73	0.0532	404.8	7.286	9.46	1.79	1.59
	74.11	-65.72	73.75	0.00	0.0687	12.52	551.0	292.86	0.0534	405.7	7.303	9.49	1.82	1.58
	75.09	-65.72	73.75	0.00	0.0687	12.53	551.3	292.99	0.0536	407.1	7.329	9.52	1.87	1.58
	76.09	-65.72	73.77	0.00	0.0687	12.53	551.2	292.83	0.0535	407.3	7.331	9.52	1.87	1.58
	77.09	-65.72	73.75	0.00	0.0687	12.53	551.3	293.02	0.0537	408.3	7.349	9.55	1.91	1.58
	78.09	-64.82	73.75	0.00	0.0687	12.53	551.4	294.36	0.0538	409.4	7.369	9.62	2.01	1.58
	79.09	-65.72	73.77	0.00	0.0687	12.54	551.6	293.06	0.0539	410.6	7.391	9.60	1.99	1.58
	80.09	-65.26	73.77	0.00	0.0688	12.54	551.6	293.73	0.0540	411.4	7.405	9.64	2.05	1.58
	81.11	-65.72	73.75	0.00	0.0688	12.55	552.0	293.40	0.0540	415.8	7.485	9.72	2.17	1.58
	82.09	-65.72	73.77	0.00	0.0688	12.54	551.9	293.22	0.0542	413.0	7.434	9.66	2.07	1.58
	83.11	-65.72	73.72	0.00	0.0688	12.55	552.1	293.56	0.0543	415.9	7.486	9.73	2.17	1.58
	84.09	-65.72	73.77	0.00	0.0689	12.55	552.1	293.34	0.0544	414.7	7.464	9.69	2.13	1.58
	85.11	-65.73	73.77	0.00	0.0688	12.55	552.2	293.35	0.0544	415.9	7.486	9.72	2.17	1.59
	86.09	-65.72	73.75	0.00	0.0688	12.56	552.5	293.64	0.0547	417.3	7.511	9.76	2.21	1.58
	87.11	-65.72	73.75	0.00	0.0688	12.55	552.2	293.51	0.0545	417.4	7.514	9.76	2.22	1.58
	88.09	-65.72	73.77	0.00	0.0688	12.55	552.2	293.37	0.0546	418.0	7.524	9.77	2.24	1.58
	89.11	-65.72	73.77	0.00	0.0688	12.55	552.2	293.39	0.0549	419.7	7.555	9.81	2.29	1.58
	90.09	-65.72	73.77	0.00	0.0688	12.55	552.3	293.46	0.0548	419.6	7.553	9.81	2.29	1.59
	91.11	-65.26	73.77	0.00	0.0688	12.56	552.4	294.16	0.0548	420.8	7.575	9.86	2.36	1.59
	92.09	-65.26	73.72	0.00	0.0689	12.56	552.6	294.47	0.0551	422.0	7.597	9.89	2.40	1.58
	93.11	-65.72	73.77	0.00	0.0689	12.56	552.5	293.52	0.0550	422.9	7.613	9.89	2.40	1.58
	94.09	-65.72	73.77	0.00	0.0690	12.56	552.8	293.68	0.0556	426.6	7.680	9.97	2.52	1.58
	95.11	-65.72	73.77	0.00	0.0689	12.56	552.6	293.62	0.0553	424.8	7.646	9.93	2.46	1.59
	96.09	-65.72	73.77	0.00	0.0689	12.56	552.8	293.72	0.0553	425.4	7.656	9.94	2.48	1.59
	97.09	-65.72	73.77	0.00	0.0689	12.57	552.9	293.73	0.0553	426.6	7.679	9.97	2.52	1.59
	98.11	-65.72	73.75	0.00	0.0689	12.57	553.2	294.00	0.0556	427.5	7.695	10.00	2.55	1.59
	99.09	-66.68	73.77	0.00	0.0689	12.57	553.0	292.46	0.0556	428.4	7.710	9.97	2.52	1.59
	100.11	-65.72	73.77	0.00	0.0689	12.57	553.2	293.93	0.0557	429.2	7.726	10.03	2.61	1.59
