Jun 12 2020 at 10:26:56
Frequency: 1.00Hz.
CO2
Zero:  Value:0.91  Date:May 19 2009 at 7:53:33 AM
Span:  Value:1.00  Date:May 19 2009 at 8:00:06 AM
H2O
Zero:  Value:0.77  Date:May 19 2009 at 7:54:01 AM
Span:  Value:1.01  Date:28 Jun 2004	 at 08:29:05	
	Relative Time	Temperature	Pressure	Aux Input	CO2 Absorptance	CO2 mmol/m3	CO2 mg/m3	CO2 umol/mol	H2O Absorptance	H2O mmol/m3	H2O g/m3	H2O mmol/mol	H2O(°C)	Cooler Voltage
	0.70	-65.72	76.63	0.00	0.0693	12.54	551.8	282.21	0.0298	191.6	3.449	4.31	-8.23	1.69
	1.69	-65.26	76.63	0.00	0.0704	12.77	561.7	287.92	0.0269	169.5	3.052	3.82	-9.76	1.69
	2.69	-65.26	76.61	0.00	0.0698	12.68	558.1	286.15	0.0284	176.7	3.180	3.99	-9.24	1.69
	3.69	-65.72	76.66	0.00	0.0707	12.84	565.1	288.93	0.0258	164.5	2.961	3.70	-10.18	1.69
	4.69	-65.72	76.64	0.00	0.0709	12.89	567.3	290.16	0.0254	158.6	2.854	3.57	-10.64	1.69
	5.69	-65.72	76.66	0.00	0.0708	12.88	566.8	289.81	0.0255	158.3	2.850	3.56	-10.65	1.69
	6.69	-65.72	76.66	0.00	0.0701	12.71	559.3	285.96	0.0272	171.0	3.078	3.85	-9.69	1.69
	7.69	-65.72	76.66	0.00	0.0700	12.68	557.7	285.16	0.0280	175.9	3.166	3.96	-9.32	1.69
	8.69	-65.72	76.64	0.00	0.0702	12.68	557.8	285.28	0.0271	174.1	3.134	3.92	-9.46	1.69
	9.69	-65.72	76.64	0.00	0.0699	12.67	557.5	285.12	0.0273	173.9	3.131	3.91	-9.47	1.69
	10.69	-65.25	76.66	0.00	0.0699	12.68	557.9	285.90	0.0270	169.3	3.047	3.82	-9.78	1.69
	11.69	-65.72	76.66	0.00	0.0707	12.87	566.1	289.43	0.0253	157.2	2.830	3.54	-10.75	1.69
	12.69	-65.72	76.61	0.00	0.0706	12.83	564.4	288.74	0.0258	159.0	2.863	3.58	-10.60	1.69
	13.69	-65.26	76.66	0.00	0.0699	12.75	561.1	287.52	0.0276	171.3	3.084	3.86	-9.63	1.69
	14.69	-65.72	76.69	0.00	0.0698	12.66	557.1	284.76	0.0273	170.3	3.065	3.83	-9.74	1.69
	15.69	-65.72	76.66	0.00	0.0696	12.56	552.9	282.66	0.0274	175.7	3.162	3.95	-9.34	1.69
	16.69	-65.72	76.64	0.00	0.0706	12.84	565.0	288.99	0.0257	159.4	2.869	3.59	-10.57	1.69
	17.69	-65.72	76.64	0.00	0.0707	12.86	565.6	289.30	0.0256	157.7	2.839	3.55	-10.70	1.69
	18.69	-65.72	76.64	0.00	0.0706	12.83	564.5	288.70	0.0260	161.1	2.900	3.63	-10.44	1.69
	19.77	-65.72	76.64	0.00	0.0703	12.76	561.7	287.26	0.0265	166.0	2.988	3.74	-10.06	1.69
	20.69	-66.19	76.64	0.00	0.0704	12.79	562.9	287.23	0.0267	167.5	3.015	3.76	-9.97	1.69
	21.77	-65.72	76.64	0.00	0.0701	12.77	561.8	287.32	0.0273	167.8	3.020	3.78	-9.92	1.69
	22.69	-65.72	76.64	0.00	0.0699	12.69	558.2	285.49	0.0268	168.2	3.027	3.78	-9.89	1.69
	23.77	-65.71	76.64	0.00	0.0705	12.81	563.6	288.26	0.0262	164.4	2.960	3.70	-10.18	1.69
	24.69	-65.72	76.66	0.00	0.0706	12.81	563.8	288.25	0.0256	162.5	2.924	3.65	-10.33	1.69
	25.70	-65.72	76.64	0.00	0.0704	12.77	562.0	287.41	0.0261	165.1	2.972	3.72	-10.13	1.69
	26.69	-65.72	76.64	0.00	0.0698	12.65	556.8	284.77	0.0271	170.5	3.068	3.84	-9.72	1.69
	27.69	-65.71	76.66	0.00	0.0697	12.61	554.7	283.62	0.0270	169.9	3.058	3.82	-9.77	1.69
	28.69	-65.72	76.66	0.00	0.0696	12.59	553.9	283.21	0.0285	182.6	3.288	4.11	-8.84	1.69
	29.69	-65.72	76.61	0.00	0.0694	12.54	551.9	282.39	0.0288	186.8	3.362	4.20	-8.56	1.69
	30.69	-65.72	76.64	0.00	0.0695	12.58	553.4	283.02	0.0281	178.0	3.203	4.00	-9.18	1.69
	31.69	-65.72	76.64	0.00	0.0692	12.48	549.2	280.87	0.0288	184.7	3.325	4.16	-8.70	1.69
	32.69	-65.71	76.64	0.00	0.0691	12.47	548.5	280.52	0.0298	193.6	3.484	4.36	-8.10	1.69
	33.69	-65.72	76.64	0.00	0.0700	12.70	558.7	285.77	0.0279	174.4	3.139	3.92	-9.44	1.69
	34.69	-65.72	76.64	0.00	0.0706	12.77	561.7	287.30	0.0259	168.4	3.032	3.79	-9.88	1.69
	35.70	-65.72	76.64	0.00	0.0704	12.83	564.3	288.63	0.0263	160.9	2.897	3.62	-10.45	1.69
	36.69	-65.26	76.64	0.00	0.0707	12.75	561.0	287.57	0.0256	168.2	3.027	3.79	-9.87	1.69
	37.69	-65.72	76.64	0.00	0.0707	12.84	565.0	288.99	0.0256	160.4	2.887	3.61	-10.49	1.69
	38.69	-65.72	76.64	0.00	0.0706	12.84	565.0	288.99	0.0257	160.7	2.893	3.62	-10.47	1.69
	39.69	-65.72	76.64	0.00	0.0705	12.81	563.8	288.34	0.0261	162.3	2.922	3.65	-10.34	1.69
	40.69	-65.72	76.64	0.00	0.0706	12.86	565.8	289.40	0.0256	158.4	2.851	3.56	-10.65	1.69
	41.69	-66.19	76.61	0.00	0.0703	12.76	561.6	286.65	0.0260	163.7	2.946	3.68	-10.27	1.69
	42.69	-65.72	76.64	0.00	0.0706	12.81	563.5	288.22	0.0257	161.3	2.904	3.63	-10.42	1.69
	43.69	-65.72	76.64	0.00	0.0704	12.79	562.8	287.87	0.0268	167.6	3.016	3.77	-9.94	1.69
	44.69	-65.26	76.66	0.00	0.0704	12.79	562.6	288.30	0.0265	167.0	3.006	3.77	-9.95	1.69
	45.69	-65.72	76.66	0.00	0.0700	12.76	561.6	287.11	0.0272	169.9	3.059	3.82	-9.76	1.69
	46.69	-65.71	76.64	0.00	0.0702	12.71	559.2	286.00	0.0271	171.3	3.084	3.86	-9.66	1.69
	47.69	-65.72	76.64	0.00	0.0698	12.67	557.5	285.16	0.0272	171.5	3.088	3.86	-9.64	1.69
	48.70	-65.72	76.66	0.00	0.0700	12.63	555.9	284.21	0.0270	172.4	3.103	3.88	-9.58	1.69
	49.69	-65.72	76.64	0.00	0.0706	12.79	562.7	287.78	0.0257	164.0	2.952	3.69	-10.21	1.69
	50.77	-65.26	76.64	0.00	0.0699	12.64	556.1	285.05	0.0275	177.2	3.189	4.00	-9.20	1.69
	51.69	-66.20	76.64	0.00	0.0697	12.71	559.4	285.45	0.0272	169.0	3.041	3.79	-9.86	1.69
	52.77	-65.73	76.66	0.00	0.0702	12.75	561.2	286.91	0.0262	164.3	2.958	3.70	-10.19	1.69
	53.69	-66.19	76.64	0.00	0.0702	12.75	560.9	286.20	0.0261	163.5	2.942	3.67	-10.28	1.69
	54.70	-65.72	76.66	0.00	0.0703	12.78	562.3	287.50	0.0262	162.3	2.922	3.65	-10.34	1.69
	55.69	-65.72	76.66	0.00	0.0703	12.78	562.2	287.46	0.0260	161.6	2.909	3.64	-10.40	1.69
	56.70	-65.72	76.64	0.00	0.0701	12.72	559.6	286.20	0.0265	166.3	2.993	3.74	-10.04	1.69
	57.69	-65.72	76.61	0.00	0.0704	12.77	561.8	287.42	0.0260	164.5	2.961	3.70	-10.17	1.69
	58.70	-65.72	76.64	0.00	0.0703	12.75	561.1	286.99	0.0261	163.7	2.947	3.68	-10.24	1.69
	59.69	-65.72	76.64	0.00	0.0703	12.74	560.6	286.74	0.0262	164.7	2.964	3.71	-10.16	1.69
	60.69	-65.72	76.61	0.00	0.0700	12.70	558.7	285.87	0.0268	169.0	3.043	3.81	-9.83	1.69
	61.69	-65.25	76.69	0.00	0.0704	12.75	561.2	287.45	0.0264	168.6	3.035	3.80	-9.83	1.69
	62.69	-65.72	76.64	0.00	0.0703	12.76	561.4	287.15	0.0264	166.3	2.993	3.74	-10.04	1.69
	63.69	-65.72	76.64	0.00	0.0707	12.80	563.1	288.01	0.0255	162.0	2.916	3.65	-10.37	1.69
	64.69	-65.26	76.64	0.00	0.0699	12.81	563.5	288.85	0.0268	165.3	2.975	3.73	-10.09	1.69
	65.69	-65.72	76.64	0.00	0.0700	12.66	557.2	285.00	0.0271	170.4	3.068	3.84	-9.73	1.69
	66.69	-65.72	76.61	0.00	0.0699	12.68	558.1	285.54	0.0273	171.9	3.094	3.87	-9.62	1.69
	67.69	-65.72	76.66	0.00	0.0696	12.61	554.7	283.59	0.0279	176.0	3.168	3.96	-9.32	1.69
	68.69	-65.72	76.64	0.00	0.0700	12.68	557.9	285.34	0.0274	173.5	3.122	3.90	-9.50	1.69
	69.69	-65.72	76.63	0.00	0.0699	12.66	556.9	284.83	0.0274	173.5	3.123	3.90	-9.50	1.69
	70.69	-65.72	76.64	0.00	0.0700	12.71	559.1	285.95	0.0277	173.7	3.127	3.91	-9.48	1.69
	71.69	-65.72	76.66	0.00	0.0702	12.73	560.3	286.44	0.0272	170.7	3.073	3.84	-9.70	1.69
	72.69	-65.72	76.64	0.00	0.0705	12.82	564.2	288.59	0.0267	164.8	2.966	3.71	-10.15	1.69
	73.69	-65.72	76.64	0.00	0.0702	12.78	562.1	287.50	0.0270	169.8	3.057	3.82	-9.77	1.69
	74.69	-65.72	76.64	0.00	0.0702	12.73	559.9	286.37	0.0276	174.9	3.148	3.94	-9.40	1.69
	75.69	-65.72	76.64	0.00	0.0700	12.66	556.9	284.85	0.0274	175.3	3.155	3.94	-9.37	1.69
	76.69	-65.72	76.66	0.00	0.0697	12.59	553.9	283.20	0.0291	185.9	3.347	4.18	-8.62	1.69
	77.70	-65.26	76.64	0.00	0.0703	12.81	563.4	288.80	0.0268	165.6	2.980	3.73	-10.06	1.69
	78.69	-65.26	76.66	0.00	0.0704	12.70	559.0	286.43	0.0265	173.6	3.125	3.91	-9.46	1.69
	79.70	-65.72	76.66	0.00	0.0701	12.59	554.0	283.25	0.0272	179.2	3.226	4.03	-9.08	1.69
	80.69	-65.72	76.64	0.00	0.0706	12.86	565.7	289.35	0.0259	159.4	2.869	3.59	-10.57	1.69
	81.70	-65.72	76.64	0.00	0.0702	12.74	560.5	286.64	0.0275	171.3	3.084	3.86	-9.66	1.69
	82.69	-65.72	76.63	0.00	0.0693	12.60	554.5	283.61	0.0285	181.2	3.261	4.08	-8.95	1.69
	83.70	-65.72	76.61	0.00	0.0699	12.55	552.3	282.58	0.0274	181.4	3.265	4.08	-8.93	1.69
	84.69	-65.72	76.64	0.00	0.0700	12.72	559.7	286.26	0.0276	172.3	3.102	3.88	-9.58	1.69
	85.70	-65.72	76.63	0.00	0.0697	12.63	555.7	284.22	0.0279	178.2	3.207	4.01	-9.16	1.69
	86.69	-65.72	76.66	0.00	0.0698	12.66	556.9	284.73	0.0279	176.8	3.182	3.98	-9.26	1.69
	87.69	-65.72	76.64	0.00	0.0697	12.63	555.7	284.19	0.0282	179.9	3.238	4.05	-9.04	1.69
	88.69	-65.26	76.64	0.00	0.0700	12.70	559.0	286.54	0.0279	173.5	3.123	3.91	-9.47	1.69
	89.70	-65.73	76.66	0.00	0.0701	12.73	560.3	286.46	0.0276	170.9	3.077	3.84	-9.69	1.69
	90.69	-65.72	76.64	0.00	0.0705	12.65	556.8	284.76	0.0261	177.6	3.196	4.00	-9.20	1.69
	91.69	-65.26	76.64	0.00	0.0701	12.69	558.5	286.28	0.0274	173.8	3.128	3.92	-9.45	1.69
	92.69	-66.19	76.64	0.00	0.0693	12.58	553.3	282.37	0.0287	181.8	3.272	4.08	-8.94	1.69
	93.69	-65.72	76.69	0.00	0.0697	12.67	557.6	284.99	0.0284	176.7	3.180	3.97	-9.27	1.69
	94.69	-65.72	76.64	0.00	0.0696	12.59	553.8	283.22	0.0283	181.4	3.265	4.08	-8.93	1.69
	95.69	-65.72	76.63	0.00	0.0699	12.63	555.7	284.21	0.0282	180.2	3.243	4.05	-9.02	1.69
	96.69	-65.72	76.64	0.00	0.0699	12.69	558.3	285.56	0.0281	176.8	3.183	3.98	-9.26	1.69
	97.69	-65.72	76.66	0.00	0.0699	12.65	556.7	284.63	0.0278	178.6	3.216	4.02	-9.13	1.69
	98.69	-65.72	76.64	0.00	0.0695	12.57	553.1	282.89	0.0288	183.5	3.303	4.13	-8.79	1.69
	99.69	-65.72	76.64	0.00	0.0698	12.64	556.3	284.51	0.0281	177.7	3.199	4.00	-9.19	1.69
	100.69	-65.72	76.64	0.00	0.0693	12.52	551.0	281.82	0.0284	181.9	3.274	4.09	-8.90	1.69
	101.69	-65.72	76.64	0.00	0.0698	12.60	554.5	283.60	0.0284	186.5	3.357	4.20	-8.58	1.69
	102.69	-65.25	76.64	0.00	0.0701	12.75	561.2	287.66	0.0276	170.1	3.062	3.84	-9.72	1.69
	103.69	-65.72	76.64	0.00	0.0699	12.73	560.2	286.53	0.0281	174.3	3.138	3.92	-9.44	1.69
